[ID: 7153488177]
Gen	LnL	TL	pi(A)	pi(C)	pi(G)	pi(T)	
1	-337449.037	108.500	0.250000	0.250000	0.250000	0.250000	
1000	-310740.343	103.901	0.196579	0.209695	0.222110	0.371617	
2000	-295129.926	98.699	0.212866	0.206610	0.210541	0.369983	
3000	-280888.264	94.426	0.217393	0.226354	0.218591	0.337663	
4000	-267955.512	89.955	0.219586	0.218793	0.221986	0.339636	
5000	-257134.786	85.707	0.219586	0.218793	0.221986	0.339636	
6000	-245709.264	81.530	0.226063	0.205895	0.213281	0.354760	
7000	-238183.809	77.334	0.211089	0.218953	0.220156	0.349802	
8000	-231342.762	73.147	0.211089	0.218953	0.220156	0.349802	
9000	-224061.647	69.846	0.217256	0.218833	0.222416	0.341495	
10000	-218152.688	68.752	0.229098	0.212068	0.215230	0.343604	
11000	-211771.109	66.370	0.216312	0.216298	0.224274	0.343116	
12000	-205021.717	63.459	0.219410	0.216226	0.216874	0.347490	
13000	-199142.463	60.800	0.219410	0.216226	0.216874	0.347490	
14000	-192308.482	57.783	0.219410	0.216226	0.216874	0.347490	
15000	-187607.077	55.610	0.219410	0.216226	0.216874	0.347490	
16000	-182090.300	53.553	0.219410	0.216226	0.216874	0.347490	
17000	-177902.929	50.885	0.219410	0.216226	0.216874	0.347490	
18000	-174407.825	48.892	0.219410	0.216226	0.216874	0.347490	
19000	-171074.482	47.270	0.219410	0.216226	0.216874	0.347490	
20000	-167544.229	45.859	0.213296	0.220800	0.230842	0.335062	
21000	-164375.177	44.651	0.213296	0.220800	0.230842	0.335062	
22000	-161774.664	43.958	0.211078	0.229293	0.219759	0.339870	
23000	-159366.277	42.022	0.211432	0.222025	0.222525	0.344018	
24000	-155963.669	40.506	0.211432	0.222025	0.222525	0.344018	
25000	-153203.893	39.753	0.211432	0.222025	0.222525	0.344018	
26000	-150932.685	38.485	0.211432	0.222025	0.222525	0.344018	
27000	-148311.989	37.067	0.211432	0.222025	0.222525	0.344018	
28000	-146509.712	36.136	0.211432	0.222025	0.222525	0.344018	
29000	-143961.252	35.305	0.211432	0.222025	0.222525	0.344018	
30000	-142138.286	34.266	0.211432	0.222025	0.222525	0.344018	
31000	-139148.894	33.168	0.214417	0.230344	0.218032	0.337208	
32000	-137334.339	32.260	0.214417	0.230344	0.218032	0.337208	
33000	-135627.686	31.701	0.214417	0.230344	0.218032	0.337208	
34000	-133948.226	31.069	0.207228	0.224800	0.222257	0.345715	
35000	-132356.366	30.420	0.207228	0.224800	0.222257	0.345715	
36000	-130776.518	29.737	0.210080	0.227569	0.219616	0.342735	
37000	-128743.690	29.316	0.210080	0.227569	0.219616	0.342735	
38000	-126167.430	28.496	0.207862	0.222202	0.233201	0.336735	
39000	-124654.284	28.012	0.206162	0.233001	0.227543	0.333294	
40000	-123283.698	27.329	0.206162	0.233001	0.227543	0.333294	
41000	-121933.588	26.726	0.206162	0.233001	0.227543	0.333294	
42000	-119669.085	26.268	0.206205	0.228025	0.228906	0.336864	
43000	-117877.363	25.710	0.206205	0.228025	0.228906	0.336864	
44000	-116338.724	25.198	0.206205	0.228025	0.228906	0.336864	
45000	-114516.945	24.733	0.205702	0.234454	0.224165	0.335680	
46000	-113125.943	24.370	0.205702	0.234454	0.224165	0.335680	
47000	-111736.419	24.040	0.205702	0.234454	0.224165	0.335680	
48000	-110274.200	23.684	0.205702	0.234454	0.224165	0.335680	
49000	-109041.019	23.231	0.205702	0.234454	0.224165	0.335680	
50000	-107403.866	22.761	0.205702	0.234454	0.224165	0.335680	
51000	-106530.152	22.202	0.205702	0.234454	0.224165	0.335680	
52000	-105249.371	21.855	0.206914	0.231951	0.227135	0.333999	
53000	-104270.340	21.344	0.208049	0.234595	0.231016	0.326340	
54000	-103246.313	21.237	0.204661	0.232824	0.227199	0.335316	
55000	-102320.581	20.937	0.204661	0.232824	0.227199	0.335316	
56000	-101852.103	20.519	0.204661	0.232824	0.227199	0.335316	
57000	-101344.607	20.330	0.204661	0.232824	0.227199	0.335316	
58000	-100472.371	20.080	0.204661	0.232824	0.227199	0.335316	
59000	-99786.743	19.819	0.204661	0.232824	0.227199	0.335316	
60000	-99498.378	19.592	0.208574	0.235499	0.234024	0.321903	
61000	-98711.507	19.310	0.208574	0.235499	0.234024	0.321903	
62000	-97884.022	18.981	0.197998	0.234808	0.228762	0.338432	
63000	-97070.163	18.839	0.197723	0.240283	0.225631	0.336363	
64000	-96193.018	18.729	0.203727	0.242734	0.225500	0.328039	
65000	-95499.835	18.613	0.203727	0.242734	0.225500	0.328039	
66000	-94883.393	18.401	0.209503	0.238565	0.220419	0.331513	
67000	-94226.964	18.200	0.209503	0.238565	0.220419	0.331513	
68000	-93806.768	18.086	0.209503	0.238565	0.220419	0.331513	
69000	-93219.709	17.890	0.209503	0.238565	0.220419	0.331513	
70000	-92532.954	17.790	0.209503	0.238565	0.220419	0.331513	
71000	-92030.120	17.361	0.203291	0.237157	0.226235	0.333317	
72000	-91431.443	17.288	0.204639	0.233241	0.229992	0.332128	
73000	-90669.907	17.090	0.204639	0.233241	0.229992	0.332128	
74000	-90156.516	17.150	0.204639	0.233241	0.229992	0.332128	
75000	-89912.191	17.141	0.204639	0.233241	0.229992	0.332128	
76000	-89208.454	16.792	0.204639	0.233241	0.229992	0.332128	
77000	-88793.775	16.656	0.204639	0.233241	0.229992	0.332128	
78000	-88322.901	16.516	0.204639	0.233241	0.229992	0.332128	
79000	-87668.597	16.417	0.204639	0.233241	0.229992	0.332128	
80000	-87425.224	16.208	0.204639	0.233241	0.229992	0.332128	
81000	-86763.990	15.850	0.204639	0.233241	0.229992	0.332128	
82000	-86561.451	15.859	0.203521	0.233392	0.228377	0.334710	
83000	-86144.103	15.747	0.203521	0.233392	0.228377	0.334710	
84000	-85954.623	15.686	0.210273	0.228748	0.222222	0.338756	
85000	-85757.397	15.571	0.201820	0.235372	0.241305	0.321502	
86000	-85394.226	15.379	0.216872	0.234649	0.221676	0.326802	
87000	-85000.972	15.078	0.211142	0.239094	0.229017	0.320746	
88000	-84765.232	15.012	0.211142	0.239094	0.229017	0.320746	
89000	-84577.311	15.016	0.211142	0.239094	0.229017	0.320746	
90000	-84212.704	14.936	0.211142	0.239094	0.229017	0.320746	
91000	-84062.102	15.011	0.208875	0.236106	0.225541	0.329477	
92000	-83945.685	14.915	0.208875	0.236106	0.225541	0.329477	
93000	-83822.734	14.794	0.208875	0.236106	0.225541	0.329477	
94000	-83663.617	14.704	0.208875	0.236106	0.225541	0.329477	
95000	-83444.286	14.600	0.208875	0.236106	0.225541	0.329477	
96000	-83378.155	14.613	0.208875	0.236106	0.225541	0.329477	
97000	-83284.727	14.662	0.208875	0.236106	0.225541	0.329477	
98000	-83236.933	14.539	0.208875	0.236106	0.225541	0.329477	
99000	-83041.768	14.521	0.204904	0.237413	0.229580	0.328103	
100000	-82913.331	14.315	0.213824	0.241834	0.227700	0.316642	
101000	-82808.482	14.414	0.213824	0.241834	0.227700	0.316642	
102000	-82708.634	14.349	0.213824	0.241834	0.227700	0.316642	
103000	-82650.266	14.375	0.213824	0.241834	0.227700	0.316642	
104000	-82582.768	14.387	0.209123	0.246787	0.225251	0.318840	
105000	-82548.400	14.339	0.207407	0.244977	0.226412	0.321204	
106000	-82496.938	14.331	0.207407	0.244977	0.226412	0.321204	
107000	-82440.291	14.255	0.207407	0.244977	0.226412	0.321204	
108000	-82380.435	14.254	0.207407	0.244977	0.226412	0.321204	
109000	-82210.849	14.225	0.207407	0.244977	0.226412	0.321204	
110000	-82121.365	14.041	0.207407	0.244977	0.226412	0.321204	
111000	-82072.649	14.018	0.207407	0.244977	0.226412	0.321204	
112000	-81920.864	14.081	0.213054	0.244185	0.230372	0.312389	
113000	-81867.131	14.170	0.205837	0.245880	0.225114	0.323169	
114000	-81841.021	14.175	0.205837	0.245880	0.225114	0.323169	
115000	-81784.230	14.263	0.205837	0.245880	0.225114	0.323169	
116000	-81746.989	14.197	0.203602	0.244831	0.235324	0.316243	
117000	-81337.175	14.160	0.203602	0.244831	0.235324	0.316243	
118000	-81318.768	14.126	0.203602	0.244831	0.235324	0.316243	
119000	-81284.782	14.073	0.210649	0.241178	0.228029	0.320144	
120000	-81225.633	14.007	0.210649	0.241178	0.228029	0.320144	
121000	-80861.652	13.906	0.203596	0.244442	0.231601	0.320361	
122000	-80822.202	13.881	0.203596	0.244442	0.231601	0.320361	
123000	-80702.437	13.704	0.203596	0.244442	0.231601	0.320361	
124000	-80670.521	13.715	0.203596	0.244442	0.231601	0.320361	
125000	-80629.820	13.721	0.203596	0.244442	0.231601	0.320361	
126000	-80599.806	13.734	0.203596	0.244442	0.231601	0.320361	
127000	-80525.588	13.730	0.203596	0.244442	0.231601	0.320361	
128000	-80514.780	13.731	0.203596	0.244442	0.231601	0.320361	
129000	-80434.577	13.661	0.203596	0.244442	0.231601	0.320361	
130000	-80404.427	13.674	0.203596	0.244442	0.231601	0.320361	
131000	-80382.857	13.591	0.203596	0.244442	0.231601	0.320361	
132000	-80310.554	13.494	0.203596	0.244442	0.231601	0.320361	
133000	-80281.959	13.445	0.203596	0.244442	0.231601	0.320361	
134000	-80257.188	13.364	0.203596	0.244442	0.231601	0.320361	
135000	-79998.516	13.331	0.203596	0.244442	0.231601	0.320361	
136000	-79675.944	13.349	0.203596	0.244442	0.231601	0.320361	
137000	-79537.770	13.440	0.203596	0.244442	0.231601	0.320361	
138000	-79485.215	13.412	0.203596	0.244442	0.231601	0.320361	
139000	-79414.078	13.415	0.208009	0.243851	0.232949	0.315191	
140000	-79363.540	13.458	0.208009	0.243851	0.232949	0.315191	
141000	-79054.078	13.300	0.208009	0.243851	0.232949	0.315191	
142000	-78924.572	13.274	0.208009	0.243851	0.232949	0.315191	
143000	-78900.614	13.305	0.201711	0.243177	0.230826	0.324286	
144000	-78848.897	13.367	0.212687	0.230912	0.230603	0.325797	
145000	-78564.665	13.335	0.201823	0.237008	0.231052	0.330117	
146000	-78056.912	13.372	0.209016	0.233860	0.228225	0.328899	
147000	-77875.064	13.346	0.209016	0.233860	0.228225	0.328899	
148000	-77771.789	13.298	0.208590	0.241375	0.230046	0.319989	
149000	-77639.402	13.216	0.208590	0.241375	0.230046	0.319989	
150000	-77638.567	13.171	0.208590	0.241375	0.230046	0.319989	
151000	-77471.361	13.134	0.208590	0.241375	0.230046	0.319989	
152000	-77400.408	13.271	0.208590	0.241375	0.230046	0.319989	
153000	-77363.197	13.307	0.208590	0.241375	0.230046	0.319989	
154000	-77256.783	13.181	0.208590	0.241375	0.230046	0.319989	
155000	-76543.620	13.730	0.217905	0.248514	0.222232	0.311350	
156000	-76258.575	13.667	0.216278	0.250489	0.228314	0.304918	
157000	-75771.785	13.455	0.216278	0.250489	0.228314	0.304918	
158000	-75042.327	13.309	0.216278	0.250489	0.228314	0.304918	
159000	-74808.741	13.289	0.220355	0.240224	0.226148	0.313273	
160000	-74425.350	13.223	0.216634	0.241524	0.234324	0.307519	
161000	-74187.121	13.272	0.216634	0.241524	0.234324	0.307519	
162000	-73547.105	13.291	0.216802	0.241126	0.219524	0.322547	
163000	-73041.197	12.999	0.216802	0.241126	0.219524	0.322547	
164000	-72721.274	12.904	0.225601	0.235997	0.228799	0.309603	
165000	-72024.728	12.830	0.225601	0.235997	0.228799	0.309603	
166000	-71471.185	12.911	0.225601	0.235997	0.228799	0.309603	
167000	-71022.504	12.972	0.225601	0.235997	0.228799	0.309603	
168000	-70454.941	12.869	0.221612	0.234978	0.226953	0.316458	
169000	-70005.888	12.863	0.222781	0.233174	0.225017	0.319028	
170000	-69633.546	12.731	0.222781	0.233174	0.225017	0.319028	
171000	-69008.448	12.639	0.222781	0.233174	0.225017	0.319028	
172000	-68565.940	12.568	0.220991	0.227469	0.227898	0.323642	
173000	-67904.704	12.548	0.225256	0.236318	0.215087	0.323339	
174000	-67704.022	12.587	0.225256	0.236318	0.215087	0.323339	
175000	-67294.368	12.453	0.225256	0.236318	0.215087	0.323339	
176000	-66594.742	12.399	0.225256	0.236318	0.215087	0.323339	
177000	-66036.291	12.065	0.225256	0.236318	0.215087	0.323339	
178000	-65751.316	12.128	0.225256	0.236318	0.215087	0.323339	
179000	-65532.574	12.300	0.225256	0.236318	0.215087	0.323339	
180000	-65246.567	12.099	0.225256	0.236318	0.215087	0.323339	
181000	-64575.563	12.003	0.228120	0.229590	0.221862	0.320429	
182000	-64393.372	11.834	0.228120	0.229590	0.221862	0.320429	
183000	-64188.020	11.865	0.228120	0.229590	0.221862	0.320429	
184000	-63863.562	11.562	0.216752	0.230173	0.218233	0.334841	
185000	-63660.245	11.295	0.217277	0.247556	0.218289	0.316877	
186000	-63457.299	11.264	0.217277	0.247556	0.218289	0.316877	
187000	-62987.602	11.178	0.226756	0.241780	0.217052	0.314412	
188000	-62784.344	11.134	0.222235	0.237365	0.228569	0.311832	
189000	-62441.132	11.058	0.222235	0.237365	0.228569	0.311832	
190000	-62241.785	10.820	0.225899	0.242968	0.227796	0.303337	
191000	-62105.999	10.865	0.220427	0.242485	0.225048	0.312040	
192000	-62007.623	10.900	0.220427	0.242485	0.225048	0.312040	
193000	-61870.385	10.750	0.220427	0.242485	0.225048	0.312040	
194000	-61625.648	10.743	0.220427	0.242485	0.225048	0.312040	
195000	-61560.388	10.606	0.220427	0.242485	0.225048	0.312040	
196000	-61427.896	10.532	0.220427	0.242485	0.225048	0.312040	
197000	-61274.817	10.518	0.220427	0.242485	0.225048	0.312040	
198000	-61175.904	10.450	0.220427	0.242485	0.225048	0.312040	
199000	-61112.695	10.363	0.220985	0.245689	0.230039	0.303287	
200000	-61043.842	10.344	0.220985	0.245689	0.230039	0.303287	
201000	-60978.965	10.330	0.220985	0.245689	0.230039	0.303287	
202000	-60917.122	10.330	0.222708	0.247074	0.229436	0.300782	
203000	-60828.227	10.373	0.222708	0.247074	0.229436	0.300782	
204000	-60788.379	10.345	0.222708	0.247074	0.229436	0.300782	
205000	-60739.914	10.327	0.221552	0.248051	0.230678	0.299720	
206000	-60575.319	10.224	0.221552	0.248051	0.230678	0.299720	
207000	-60570.529	10.154	0.221552	0.248051	0.230678	0.299720	
208000	-60412.681	10.118	0.221552	0.248051	0.230678	0.299720	
209000	-60183.543	10.104	0.221552	0.248051	0.230678	0.299720	
210000	-60094.555	10.057	0.221552	0.248051	0.230678	0.299720	
211000	-60050.765	10.060	0.221552	0.248051	0.230678	0.299720	
212000	-59984.465	9.961	0.221552	0.248051	0.230678	0.299720	
213000	-59937.075	9.946	0.221552	0.248051	0.230678	0.299720	
214000	-59914.354	10.000	0.221552	0.248051	0.230678	0.299720	
215000	-59908.882	9.986	0.221552	0.248051	0.230678	0.299720	
216000	-59860.379	10.018	0.220995	0.249674	0.237452	0.291880	
217000	-59839.354	9.973	0.220995	0.249674	0.237452	0.291880	
218000	-59821.357	9.979	0.220995	0.249674	0.237452	0.291880	
219000	-59815.696	9.943	0.218836	0.244272	0.237011	0.299882	
220000	-59798.729	9.920	0.208951	0.248039	0.237089	0.305921	
221000	-59773.721	9.856	0.221544	0.254833	0.222823	0.300800	
222000	-59781.407	9.832	0.221544	0.254833	0.222823	0.300800	
223000	-59611.349	9.815	0.224013	0.249532	0.229919	0.296535	
224000	-59581.642	9.845	0.222507	0.259021	0.231180	0.287291	
225000	-59578.001	9.796	0.217565	0.241324	0.238863	0.302247	
226000	-59537.277	9.843	0.217565	0.241324	0.238863	0.302247	
227000	-59485.197	9.815	0.217565	0.241324	0.238863	0.302247	
228000	-59456.200	9.796	0.217565	0.241324	0.238863	0.302247	
229000	-59380.803	9.751	0.214616	0.243751	0.239136	0.302497	
230000	-59353.914	9.769	0.214616	0.243751	0.239136	0.302497	
231000	-59326.641	9.741	0.213839	0.250408	0.231116	0.304636	
232000	-59328.420	9.776	0.213839	0.250408	0.231116	0.304636	
233000	-59308.372	9.720	0.222608	0.254045	0.237812	0.285534	
234000	-59308.369	9.712	0.222608	0.254045	0.237812	0.285534	
235000	-59295.352	9.809	0.224697	0.251509	0.237551	0.286242	
236000	-59238.774	9.810	0.224697	0.251509	0.237551	0.286242	
237000	-59224.159	9.822	0.229803	0.250253	0.232739	0.287205	
238000	-59217.162	9.839	0.228050	0.248300	0.238153	0.285496	
239000	-59220.079	9.807	0.229049	0.241956	0.230551	0.298444	
240000	-59210.217	9.802	0.220499	0.250133	0.231959	0.297409	
241000	-59189.737	9.752	0.220499	0.250133	0.231959	0.297409	
242000	-59175.663	9.764	0.220499	0.250133	0.231959	0.297409	
243000	-59180.627	9.796	0.223059	0.248523	0.234483	0.293935	
244000	-59168.686	9.718	0.223059	0.248523	0.234483	0.293935	
245000	-59171.752	9.590	0.213675	0.255259	0.237233	0.293833	
246000	-59184.789	9.668	0.211400	0.255256	0.232737	0.300607	
247000	-59125.161	9.667	0.212347	0.247531	0.237324	0.302798	
248000	-59094.232	9.578	0.212347	0.247531	0.237324	0.302798	
249000	-59113.981	9.554	0.212347	0.247531	0.237324	0.302798	
250000	-59116.921	9.558	0.218826	0.253011	0.234377	0.293787	
251000	-59109.128	9.548	0.218826	0.253011	0.234377	0.293787	
252000	-59105.362	9.557	0.216580	0.248251	0.237230	0.297940	
253000	-59095.972	9.523	0.216580	0.248251	0.237230	0.297940	
254000	-59081.958	9.558	0.224288	0.247207	0.232058	0.296448	
255000	-59082.964	9.583	0.224288	0.247207	0.232058	0.296448	
256000	-59081.671	9.608	0.224288	0.247207	0.232058	0.296448	
257000	-59091.299	9.625	0.224218	0.244984	0.237571	0.293227	
258000	-59083.520	9.600	0.224218	0.244984	0.237571	0.293227	
259000	-59087.599	9.533	0.224218	0.244984	0.237571	0.293227	
260000	-59072.263	9.475	0.224218	0.244984	0.237571	0.293227	
261000	-59063.490	9.449	0.224218	0.244984	0.237571	0.293227	
262000	-59061.909	9.444	0.215928	0.245275	0.245075	0.293722	
263000	-59030.957	9.481	0.209982	0.252568	0.244423	0.293027	
264000	-59024.476	9.511	0.226054	0.245312	0.237982	0.290652	
265000	-58973.019	9.525	0.216092	0.255032	0.238045	0.290831	
266000	-58954.853	9.537	0.216092	0.255032	0.238045	0.290831	
267000	-58958.345	9.543	0.223865	0.252350	0.233963	0.289822	
268000	-58983.101	9.535	0.223865	0.252350	0.233963	0.289822	
269000	-58967.317	9.524	0.220963	0.247888	0.233459	0.297690	
270000	-58973.007	9.554	0.220963	0.247888	0.233459	0.297690	
271000	-58959.484	9.581	0.220963	0.247888	0.233459	0.297690	
272000	-58939.663	9.557	0.220963	0.247888	0.233459	0.297690	
273000	-58926.098	9.457	0.220963	0.247888	0.233459	0.297690	
274000	-58909.102	9.371	0.221046	0.249551	0.231808	0.297595	
275000	-58912.250	9.325	0.221046	0.249551	0.231808	0.297595	
276000	-58911.208	9.334	0.215792	0.254517	0.235308	0.294383	
277000	-58922.924	9.354	0.217258	0.254633	0.230308	0.297802	
278000	-58935.807	9.369	0.217258	0.254633	0.230308	0.297802	
279000	-58915.950	9.372	0.217258	0.254633	0.230308	0.297802	
280000	-58886.708	9.336	0.217258	0.254633	0.230308	0.297802	
281000	-58897.923	9.439	0.217258	0.254633	0.230308	0.297802	
282000	-58917.875	9.437	0.216998	0.255791	0.230218	0.296992	
283000	-58923.852	9.409	0.230092	0.243615	0.227183	0.299109	
284000	-58903.004	9.386	0.225885	0.249710	0.229231	0.295174	
285000	-58904.933	9.355	0.225885	0.249710	0.229231	0.295174	
286000	-58890.684	9.419	0.224645	0.250319	0.229943	0.295093	
287000	-58901.841	9.401	0.220550	0.252229	0.233233	0.293988	
288000	-58889.537	9.391	0.220550	0.252229	0.233233	0.293988	
289000	-58852.456	9.352	0.220550	0.252229	0.233233	0.293988	
290000	-58853.195	9.355	0.219902	0.254013	0.233013	0.293071	
291000	-58826.071	9.421	0.219902	0.254013	0.233013	0.293071	
292000	-58831.667	9.464	0.217170	0.252308	0.236262	0.294260	
293000	-58830.185	9.491	0.217170	0.252308	0.236262	0.294260	
294000	-58815.799	9.518	0.222025	0.245754	0.235262	0.296959	
295000	-58803.677	9.522	0.222025	0.245754	0.235262	0.296959	
296000	-58810.777	9.535	0.222025	0.245754	0.235262	0.296959	
297000	-58789.263	9.493	0.222025	0.245754	0.235262	0.296959	
298000	-58783.285	9.482	0.222025	0.245754	0.235262	0.296959	
299000	-58767.898	9.438	0.222025	0.245754	0.235262	0.296959	
300000	-58746.062	9.366	0.222025	0.245754	0.235262	0.296959	
301000	-58750.015	9.356	0.218890	0.253319	0.235293	0.292498	
302000	-58747.526	9.388	0.216256	0.244082	0.240333	0.299329	
303000	-58712.456	9.423	0.216256	0.244082	0.240333	0.299329	
304000	-58677.861	9.481	0.216392	0.247999	0.237718	0.297891	
305000	-58676.889	9.524	0.216821	0.247585	0.234383	0.301211	
306000	-58669.328	9.535	0.216821	0.247585	0.234383	0.301211	
307000	-58660.616	9.517	0.216821	0.247585	0.234383	0.301211	
308000	-58657.951	9.460	0.220752	0.246458	0.234996	0.297793	
309000	-58661.158	9.464	0.220752	0.246458	0.234996	0.297793	
310000	-58640.784	9.465	0.219978	0.246139	0.239253	0.294630	
311000	-58674.946	9.482	0.219978	0.246139	0.239253	0.294630	
312000	-58661.989	9.505	0.219978	0.246139	0.239253	0.294630	
313000	-58660.810	9.441	0.219933	0.247130	0.232396	0.300541	
314000	-58669.054	9.466	0.216492	0.253690	0.235759	0.294060	
315000	-58647.994	9.461	0.223522	0.256833	0.232747	0.286898	
316000	-58653.239	9.490	0.221659	0.240382	0.242583	0.295376	
317000	-58655.129	9.453	0.211076	0.252757	0.241928	0.294239	
318000	-58570.654	9.513	0.228789	0.244757	0.232339	0.294115	
319000	-58549.409	9.532	0.219036	0.254526	0.244248	0.282190	
320000	-58415.885	9.528	0.215395	0.254470	0.238807	0.291327	
321000	-58150.766	9.543	0.231037	0.243354	0.231815	0.293794	
322000	-58010.153	9.455	0.231037	0.243354	0.231815	0.293794	
323000	-57776.350	9.421	0.231037	0.243354	0.231815	0.293794	
324000	-57454.537	9.446	0.221700	0.242281	0.233772	0.302248	
325000	-56838.357	9.380	0.221700	0.242281	0.233772	0.302248	
326000	-56443.125	9.355	0.222020	0.232389	0.237489	0.308102	
327000	-55913.154	9.384	0.225407	0.239455	0.232908	0.302230	
328000	-55492.724	9.393	0.225407	0.239455	0.232908	0.302230	
329000	-55058.892	9.220	0.220418	0.239633	0.222284	0.317665	
330000	-54372.748	9.167	0.233012	0.229248	0.222413	0.315327	
331000	-53962.884	9.084	0.233012	0.229248	0.222413	0.315327	
332000	-53748.243	9.050	0.215493	0.230878	0.227794	0.325835	
333000	-53429.264	8.895	0.215493	0.230878	0.227794	0.325835	
334000	-53214.510	9.060	0.220799	0.235557	0.219177	0.324466	
335000	-53069.979	9.094	0.220799	0.235557	0.219177	0.324466	
336000	-52863.455	9.067	0.220799	0.235557	0.219177	0.324466	
337000	-52530.586	8.992	0.229870	0.230764	0.222460	0.316906	
338000	-52304.044	8.958	0.229870	0.230764	0.222460	0.316906	
339000	-51962.989	8.892	0.229870	0.230764	0.222460	0.316906	
340000	-51536.241	8.817	0.229870	0.230764	0.222460	0.316906	
341000	-51321.675	8.766	0.229870	0.230764	0.222460	0.316906	
342000	-51254.692	8.698	0.229870	0.230764	0.222460	0.316906	
343000	-51157.467	8.664	0.215107	0.235922	0.233291	0.315680	
344000	-51110.709	8.655	0.215125	0.230220	0.231295	0.323360	
345000	-51046.754	8.602	0.215125	0.230220	0.231295	0.323360	
346000	-50886.305	8.560	0.222570	0.238090	0.226410	0.312930	
347000	-50848.854	8.582	0.217763	0.233684	0.227693	0.320860	
348000	-50698.026	8.612	0.224947	0.235829	0.222239	0.316984	
349000	-50648.119	8.546	0.227628	0.234173	0.221445	0.316754	
350000	-50592.139	8.545	0.218013	0.238043	0.230501	0.313443	
351000	-50546.061	8.584	0.218013	0.238043	0.230501	0.313443	
352000	-50487.154	8.539	0.228893	0.236653	0.227106	0.307348	
353000	-50427.163	8.524	0.228893	0.236653	0.227106	0.307348	
354000	-50371.494	8.466	0.228893	0.236653	0.227106	0.307348	
355000	-50345.436	8.503	0.228893	0.236653	0.227106	0.307348	
356000	-50320.014	8.494	0.228852	0.230730	0.232724	0.307695	
357000	-50262.794	8.546	0.228852	0.230730	0.232724	0.307695	
358000	-50113.227	8.437	0.228852	0.230730	0.232724	0.307695	
359000	-50096.393	8.430	0.218526	0.238662	0.234255	0.308557	
360000	-50099.309	8.435	0.218526	0.238662	0.234255	0.308557	
361000	-50083.306	8.430	0.222679	0.232437	0.229740	0.315143	
362000	-50073.773	8.491	0.219675	0.240850	0.237832	0.301644	
363000	-50067.253	8.295	0.227752	0.234473	0.232224	0.305551	
364000	-50049.431	8.444	0.227752	0.234473	0.232224	0.305551	
365000	-49987.796	8.356	0.220574	0.242556	0.228412	0.308458	
366000	-49991.847	8.422	0.226616	0.238458	0.224614	0.310312	
367000	-50001.986	8.438	0.226616	0.238458	0.224614	0.310312	
368000	-49887.803	8.451	0.226616	0.238458	0.224614	0.310312	
369000	-49778.412	8.470	0.216754	0.240640	0.229904	0.312703	
370000	-49748.989	8.419	0.216754	0.240640	0.229904	0.312703	
371000	-49719.087	8.373	0.224144	0.232118	0.233457	0.310280	
372000	-49705.114	8.384	0.224144	0.232118	0.233457	0.310280	
373000	-49711.210	8.399	0.216670	0.243542	0.233332	0.306456	
374000	-49714.784	8.288	0.227322	0.241816	0.236716	0.294145	
375000	-49705.577	8.320	0.227322	0.241816	0.236716	0.294145	
376000	-49641.032	8.252	0.227322	0.241816	0.236716	0.294145	
377000	-49646.015	8.256	0.227682	0.231114	0.225545	0.315659	
378000	-49653.366	8.231	0.221518	0.237953	0.222990	0.317539	
379000	-49625.473	8.220	0.221518	0.237953	0.222990	0.317539	
380000	-49611.241	8.234	0.222296	0.240311	0.226471	0.310922	
381000	-49589.194	8.314	0.222296	0.240311	0.226471	0.310922	
382000	-49576.060	8.312	0.229570	0.240828	0.224422	0.305180	
383000	-49569.629	8.319	0.225883	0.231287	0.232756	0.310074	
384000	-49536.432	8.268	0.225883	0.231287	0.232756	0.310074	
385000	-49478.216	8.237	0.227771	0.238551	0.230252	0.303425	
386000	-49482.477	8.207	0.227771	0.238551	0.230252	0.303425	
387000	-49478.399	8.246	0.227074	0.235452	0.232625	0.304849	
388000	-49486.517	8.208	0.233927	0.235365	0.232626	0.298082	
389000	-49459.353	8.214	0.216880	0.246265	0.237878	0.298977	
390000	-49462.314	8.219	0.219838	0.232896	0.231934	0.315331	
391000	-49450.787	8.190	0.228213	0.237406	0.222914	0.311467	
392000	-49436.557	8.217	0.226135	0.240987	0.224712	0.308166	
393000	-49422.887	8.200	0.226563	0.241909	0.229179	0.302349	
394000	-49408.617	8.234	0.226563	0.241909	0.229179	0.302349	
395000	-49412.234	8.176	0.226563	0.241909	0.229179	0.302349	
396000	-49374.980	8.121	0.226563	0.241909	0.229179	0.302349	
397000	-49406.801	8.068	0.223917	0.235425	0.236202	0.304455	
398000	-49393.998	8.053	0.223917	0.235425	0.236202	0.304455	
399000	-49394.767	8.063	0.232906	0.234214	0.232355	0.300524	
400000	-49410.963	8.055	0.225591	0.232870	0.230813	0.310726	
401000	-49412.834	8.049	0.225914	0.238741	0.231240	0.304105	
402000	-49420.188	8.080	0.225914	0.238741	0.231240	0.304105	
403000	-49390.167	8.017	0.227097	0.234152	0.237337	0.301413	
404000	-49377.524	7.975	0.214398	0.244454	0.230703	0.310446	
405000	-49361.715	7.944	0.221611	0.246290	0.229233	0.302865	
406000	-49344.572	8.102	0.218453	0.231618	0.236722	0.313207	
407000	-49344.702	8.086	0.218453	0.231618	0.236722	0.313207	
408000	-49330.392	8.102	0.226039	0.233296	0.239562	0.301103	
409000	-49340.378	8.139	0.226039	0.233296	0.239562	0.301103	
410000	-49346.992	8.165	0.231080	0.233189	0.227192	0.308538	
411000	-49332.010	8.155	0.226796	0.237816	0.235376	0.300011	
412000	-49315.372	8.141	0.226796	0.237816	0.235376	0.300011	
413000	-49291.208	8.099	0.228948	0.236019	0.235178	0.299855	
414000	-49281.783	8.071	0.228948	0.236019	0.235178	0.299855	
415000	-49266.406	8.060	0.228948	0.236019	0.235178	0.299855	
416000	-49267.382	8.118	0.228948	0.236019	0.235178	0.299855	
417000	-49285.314	8.100	0.228948	0.236019	0.235178	0.299855	
418000	-49290.228	8.126	0.228948	0.236019	0.235178	0.299855	
419000	-49296.688	8.027	0.218644	0.239189	0.236244	0.305924	
420000	-49303.325	8.018	0.228958	0.234844	0.231191	0.305006	
421000	-49281.070	8.001	0.228273	0.243268	0.236505	0.291953	
422000	-49298.194	7.995	0.228273	0.243268	0.236505	0.291953	
423000	-49303.306	8.005	0.228273	0.243268	0.236505	0.291953	
424000	-49289.073	7.977	0.219586	0.242101	0.239964	0.298349	
425000	-49274.045	7.940	0.219586	0.242101	0.239964	0.298349	
426000	-49286.800	7.837	0.220946	0.241132	0.232660	0.305263	
427000	-49278.196	7.858	0.220946	0.241132	0.232660	0.305263	
428000	-49285.563	7.872	0.224240	0.242157	0.239318	0.294285	
429000	-49283.258	7.868	0.224267	0.241810	0.239665	0.294257	
430000	-49296.955	7.919	0.224267	0.241810	0.239665	0.294257	
431000	-49273.480	7.972	0.224267	0.241810	0.239665	0.294257	
432000	-49263.874	7.899	0.226148	0.240389	0.233900	0.299564	
433000	-49254.584	7.866	0.225398	0.237461	0.239701	0.297440	
434000	-49254.014	7.807	0.225398	0.237461	0.239701	0.297440	
435000	-49250.754	7.772	0.233567	0.234153	0.233182	0.299098	
436000	-49245.896	7.773	0.225984	0.238862	0.240146	0.295008	
437000	-49254.745	7.823	0.227594	0.234968	0.240776	0.296663	
438000	-49248.644	7.856	0.230507	0.237189	0.235437	0.296867	
439000	-49239.020	7.878	0.230507	0.237189	0.235437	0.296867	
440000	-49234.065	7.845	0.222045	0.240771	0.231193	0.305991	
441000	-49253.690	7.843	0.222045	0.240771	0.231193	0.305991	
442000	-49260.985	7.860	0.222045	0.240771	0.231193	0.305991	
443000	-49259.273	7.801	0.222045	0.240771	0.231193	0.305991	
444000	-49246.460	7.806	0.222045	0.240771	0.231193	0.305991	
445000	-49242.817	7.780	0.222045	0.240771	0.231193	0.305991	
446000	-49240.977	7.838	0.222045	0.240771	0.231193	0.305991	
447000	-49233.388	7.772	0.222045	0.240771	0.231193	0.305991	
448000	-49229.739	7.900	0.224104	0.244971	0.236468	0.294457	
449000	-49240.940	7.938	0.224973	0.239214	0.229173	0.306639	
450000	-49242.477	7.961	0.229891	0.237080	0.234345	0.298684	
451000	-49252.625	7.987	0.225260	0.240342	0.238047	0.296352	
452000	-49261.074	8.000	0.225260	0.240342	0.238047	0.296352	
453000	-49259.829	7.972	0.225260	0.240342	0.238047	0.296352	
454000	-49238.539	7.888	0.225260	0.240342	0.238047	0.296352	
455000	-49235.228	7.895	0.225260	0.240342	0.238047	0.296352	
456000	-49246.277	7.900	0.225260	0.240342	0.238047	0.296352	
457000	-49266.634	7.919	0.225260	0.240342	0.238047	0.296352	
458000	-49254.816	7.855	0.225260	0.240342	0.238047	0.296352	
459000	-49264.559	7.829	0.225260	0.240342	0.238047	0.296352	
460000	-49246.419	7.802	0.218257	0.237058	0.241754	0.302931	
461000	-49246.710	7.858	0.222646	0.237299	0.239269	0.300786	
462000	-49237.166	7.856	0.222646	0.237299	0.239269	0.300786	
463000	-49216.901	7.840	0.220575	0.235098	0.238073	0.306254	
464000	-49233.039	7.897	0.220575	0.235098	0.238073	0.306254	
465000	-49236.049	7.812	0.225871	0.230982	0.237676	0.305471	
466000	-49233.243	7.849	0.217850	0.245013	0.232900	0.304238	
467000	-49219.220	7.855	0.217850	0.245013	0.232900	0.304238	
468000	-49214.984	7.871	0.220683	0.239630	0.241454	0.298234	
469000	-49219.509	7.904	0.220683	0.239630	0.241454	0.298234	
470000	-49209.298	7.871	0.220683	0.239630	0.241454	0.298234	
471000	-49217.445	7.841	0.220683	0.239630	0.241454	0.298234	
472000	-49214.575	7.815	0.221716	0.237969	0.234941	0.305374	
473000	-49226.702	7.826	0.221716	0.237969	0.234941	0.305374	
474000	-49212.862	7.850	0.221716	0.237969	0.234941	0.305374	
475000	-49246.481	7.864	0.218960	0.239369	0.237305	0.304367	
476000	-49239.873	7.959	0.218960	0.239369	0.237305	0.304367	
477000	-49238.606	7.916	0.218960	0.239369	0.237305	0.304367	
478000	-49239.942	7.937	0.225336	0.239657	0.234971	0.300036	
479000	-49227.935	7.899	0.228333	0.244098	0.232271	0.295297	
480000	-49226.362	7.909	0.219550	0.238828	0.232471	0.309152	
481000	-49218.358	7.903	0.219550	0.238828	0.232471	0.309152	
482000	-49227.382	7.940	0.219550	0.238828	0.232471	0.309152	
483000	-49212.851	7.862	0.219550	0.238828	0.232471	0.309152	
484000	-49011.544	7.848	0.227241	0.239119	0.234633	0.299008	
485000	-49028.378	7.855	0.227241	0.239119	0.234633	0.299008	
486000	-49020.017	7.880	0.227241	0.239119	0.234633	0.299008	
487000	-49015.403	7.882	0.227241	0.239119	0.234633	0.299008	
488000	-49019.459	7.871	0.227241	0.239119	0.234633	0.299008	
489000	-49008.577	7.876	0.227241	0.239119	0.234633	0.299008	
490000	-48997.553	7.845	0.227241	0.239119	0.234633	0.299008	
491000	-48985.095	7.857	0.227241	0.239119	0.234633	0.299008	
492000	-48983.995	7.803	0.227241	0.239119	0.234633	0.299008	
493000	-48989.626	7.836	0.227241	0.239119	0.234633	0.299008	
494000	-48983.508	7.874	0.227241	0.239119	0.234633	0.299008	
495000	-48979.684	7.817	0.227241	0.239119	0.234633	0.299008	
496000	-48976.648	7.822	0.227241	0.239119	0.234633	0.299008	
497000	-48965.785	7.830	0.227241	0.239119	0.234633	0.299008	
498000	-48973.102	7.825	0.227241	0.239119	0.234633	0.299008	
499000	-48917.072	7.844	0.227241	0.239119	0.234633	0.299008	
500000	-48906.546	7.950	0.227241	0.239119	0.234633	0.299008	
501000	-48880.742	7.935	0.213230	0.242908	0.239411	0.304451	
502000	-48865.621	7.973	0.224035	0.233908	0.224910	0.317147	
503000	-48852.956	7.977	0.237232	0.240455	0.222240	0.300073	
504000	-48841.916	7.885	0.214216	0.248131	0.229663	0.307990	
505000	-48815.399	7.825	0.221824	0.233278	0.241096	0.303802	
506000	-48814.414	7.789	0.222586	0.243089	0.234944	0.299382	
507000	-48826.313	7.933	0.222586	0.243089	0.234944	0.299382	
508000	-48836.936	7.888	0.222586	0.243089	0.234944	0.299382	
509000	-48840.337	7.895	0.222586	0.243089	0.234944	0.299382	
510000	-48836.582	7.893	0.222166	0.239300	0.238806	0.299727	
511000	-48817.916	7.841	0.222166	0.239300	0.238806	0.299727	
512000	-48825.044	7.856	0.222166	0.239300	0.238806	0.299727	
513000	-48802.022	7.812	0.222166	0.239300	0.238806	0.299727	
514000	-48787.397	7.824	0.222166	0.239300	0.238806	0.299727	
515000	-48780.423	7.781	0.223177	0.240736	0.234258	0.301829	
516000	-48755.022	7.785	0.223177	0.240736	0.234258	0.301829	
517000	-48746.489	7.818	0.223177	0.240736	0.234258	0.301829	
518000	-48766.232	7.809	0.223177	0.240736	0.234258	0.301829	
519000	-48764.389	7.822	0.223596	0.240071	0.231547	0.304786	
520000	-48769.659	7.744	0.222947	0.245370	0.229202	0.302481	
521000	-48772.937	7.734	0.222947	0.245370	0.229202	0.302481	
522000	-48770.496	7.759	0.222947	0.245370	0.229202	0.302481	
523000	-48775.006	7.746	0.222947	0.245370	0.229202	0.302481	
524000	-48781.490	7.745	0.222947	0.245370	0.229202	0.302481	
525000	-48775.743	7.777	0.226582	0.235663	0.236232	0.301522	
526000	-48776.246	7.881	0.220914	0.242900	0.229777	0.306409	
527000	-48769.517	7.906	0.230207	0.236894	0.237769	0.295129	
528000	-48788.439	7.811	0.228217	0.238454	0.243461	0.289868	
529000	-48773.311	7.804	0.233457	0.236071	0.226255	0.304218	
530000	-48761.466	7.742	0.220941	0.246741	0.230653	0.301665	
531000	-48758.545	7.767	0.220941	0.246741	0.230653	0.301665	
532000	-48773.682	7.760	0.220941	0.246741	0.230653	0.301665	
533000	-48766.223	7.765	0.220941	0.246741	0.230653	0.301665	
534000	-48768.442	7.776	0.214202	0.246220	0.239816	0.299762	
535000	-48766.983	7.722	0.233347	0.232806	0.234326	0.299521	
536000	-48786.274	7.766	0.233347	0.232806	0.234326	0.299521	
537000	-48774.872	7.722	0.222264	0.242338	0.226239	0.309159	
538000	-48780.258	7.804	0.230967	0.243040	0.236164	0.289829	
539000	-48771.987	7.748	0.210538	0.240332	0.243282	0.305848	
540000	-48740.620	7.711	0.217405	0.237145	0.243271	0.302179	
541000	-48716.521	7.723	0.219608	0.242582	0.231305	0.306505	
542000	-48714.289	7.695	0.226524	0.238070	0.241066	0.294340	
543000	-48721.625	7.669	0.225147	0.244382	0.226847	0.303624	
544000	-48746.912	7.733	0.221673	0.247426	0.230365	0.300535	
545000	-48760.233	7.784	0.215479	0.245047	0.243729	0.295745	
546000	-48743.970	7.729	0.213631	0.237176	0.241908	0.307286	
547000	-48750.550	7.703	0.226201	0.234240	0.241204	0.298355	
548000	-48761.229	7.735	0.223306	0.238851	0.242019	0.295824	
549000	-48741.817	7.694	0.223306	0.238851	0.242019	0.295824	
550000	-48724.168	7.696	0.219496	0.235545	0.243978	0.300981	
551000	-48731.177	7.684	0.220937	0.231887	0.247192	0.299985	
552000	-48760.610	7.729	0.218793	0.233219	0.244215	0.303773	
553000	-48764.612	7.735	0.225052	0.232216	0.239722	0.303009	
554000	-48781.935	7.804	0.225946	0.246247	0.226977	0.300830	
555000	-48786.742	7.804	0.233283	0.230051	0.232959	0.303707	
556000	-48778.292	7.824	0.233283	0.230051	0.232959	0.303707	
557000	-48786.711	7.844	0.237351	0.238167	0.228091	0.296391	
558000	-48804.989	7.890	0.220540	0.233043	0.235099	0.311319	
559000	-48794.186	7.892	0.220540	0.233043	0.235099	0.311319	
560000	-48781.198	7.815	0.220540	0.233043	0.235099	0.311319	
561000	-48771.977	7.763	0.217495	0.241959	0.233055	0.307491	
562000	-48768.621	7.788	0.231146	0.232405	0.240043	0.296406	
563000	-48746.418	7.753	0.220263	0.233985	0.231917	0.313835	
564000	-48743.234	7.724	0.221900	0.241193	0.241569	0.295339	
565000	-48743.709	7.736	0.221343	0.244556	0.232335	0.301766	
566000	-48754.480	7.752	0.224075	0.239532	0.232891	0.303502	
567000	-48761.438	7.813	0.216212	0.238034	0.236898	0.308856	
568000	-48739.285	7.761	0.223078	0.237506	0.234674	0.304743	
569000	-48740.356	7.808	0.222627	0.240113	0.232906	0.304354	
570000	-48750.054	7.813	0.222233	0.235377	0.234383	0.308007	
571000	-48746.213	7.840	0.221246	0.236802	0.237301	0.304652	
572000	-48739.232	7.831	0.221246	0.236802	0.237301	0.304652	
573000	-48734.855	7.833	0.220596	0.245343	0.228441	0.305620	
574000	-48736.539	7.773	0.223803	0.237186	0.235020	0.303991	
575000	-48749.625	7.684	0.220658	0.245366	0.236785	0.297191	
576000	-48733.082	7.740	0.220658	0.245366	0.236785	0.297191	
577000	-48722.773	7.740	0.227622	0.236875	0.239428	0.296075	
578000	-48728.117	7.743	0.227622	0.236875	0.239428	0.296075	
579000	-48745.463	7.929	0.227622	0.236875	0.239428	0.296075	
580000	-48755.174	7.946	0.227622	0.236875	0.239428	0.296075	
581000	-48737.007	7.848	0.227592	0.242966	0.224743	0.304699	
582000	-48752.219	7.826	0.216834	0.241570	0.245053	0.296542	
583000	-48732.486	7.807	0.216834	0.241570	0.245053	0.296542	
584000	-48726.126	7.847	0.216834	0.241570	0.245053	0.296542	
585000	-48719.565	7.807	0.228719	0.240895	0.238565	0.291822	
586000	-48696.819	7.746	0.224288	0.246593	0.234268	0.294850	
587000	-48711.123	7.748	0.218510	0.238328	0.241805	0.301357	
588000	-48735.227	7.718	0.226268	0.243872	0.232104	0.297756	
589000	-48736.370	7.731	0.222994	0.237087	0.235548	0.304372	
590000	-48746.113	7.750	0.230120	0.237839	0.228486	0.303555	
591000	-48717.477	7.768	0.223231	0.237398	0.238257	0.301114	
592000	-48726.249	7.874	0.223231	0.237398	0.238257	0.301114	
593000	-48724.752	7.910	0.223231	0.237398	0.238257	0.301114	
594000	-48737.574	7.868	0.223231	0.237398	0.238257	0.301114	
595000	-48743.038	7.879	0.223231	0.237398	0.238257	0.301114	
596000	-48742.059	7.869	0.223231	0.237398	0.238257	0.301114	
597000	-48744.253	7.854	0.218728	0.237121	0.236016	0.308135	
598000	-48740.288	7.856	0.218728	0.237121	0.236016	0.308135	
599000	-48741.635	7.780	0.218728	0.237121	0.236016	0.308135	
600000	-48719.092	7.816	0.218728	0.237121	0.236016	0.308135	
601000	-48718.218	7.792	0.218728	0.237121	0.236016	0.308135	
602000	-48725.975	7.780	0.222586	0.245485	0.236983	0.294946	
603000	-48743.144	7.804	0.222586	0.245485	0.236983	0.294946	
604000	-48740.667	7.857	0.223055	0.245536	0.236489	0.294920	
605000	-48735.281	7.837	0.221637	0.231353	0.242480	0.304530	
606000	-48717.318	7.856	0.221637	0.231353	0.242480	0.304530	
607000	-48697.473	7.821	0.221637	0.231353	0.242480	0.304530	
608000	-48707.855	7.862	0.226803	0.237737	0.232375	0.303086	
609000	-48692.337	7.845	0.226803	0.237737	0.232375	0.303086	
610000	-48693.230	7.883	0.226803	0.237737	0.232375	0.303086	
611000	-48702.650	7.876	0.226803	0.237737	0.232375	0.303086	
612000	-48695.819	7.817	0.226803	0.237737	0.232375	0.303086	
613000	-48676.388	7.754	0.226803	0.237737	0.232375	0.303086	
614000	-48677.952	7.814	0.226306	0.235753	0.233879	0.304062	
615000	-48671.781	7.787	0.226306	0.235753	0.233879	0.304062	
616000	-48702.692	7.821	0.226306	0.235753	0.233879	0.304062	
617000	-48727.247	7.855	0.226306	0.235753	0.233879	0.304062	
618000	-48735.260	7.869	0.226306	0.235753	0.233879	0.304062	
619000	-48719.253	7.821	0.226306	0.235753	0.233879	0.304062	
620000	-48743.121	7.871	0.226306	0.235753	0.233879	0.304062	
621000	-48735.751	7.860	0.226306	0.235753	0.233879	0.304062	
622000	-48741.650	7.884	0.226306	0.235753	0.233879	0.304062	
623000	-48745.977	7.878	0.226306	0.235753	0.233879	0.304062	
624000	-48740.759	7.853	0.226306	0.235753	0.233879	0.304062	
625000	-48753.318	7.853	0.226306	0.235753	0.233879	0.304062	
626000	-48747.922	7.801	0.226306	0.235753	0.233879	0.304062	
627000	-48740.086	7.759	0.226306	0.235753	0.233879	0.304062	
628000	-48732.698	7.664	0.226306	0.235753	0.233879	0.304062	
629000	-48749.543	7.666	0.226306	0.235753	0.233879	0.304062	
630000	-48757.995	7.666	0.227694	0.239189	0.237778	0.295339	
631000	-48745.820	7.696	0.229025	0.239930	0.235173	0.295872	
632000	-48761.796	7.724	0.229892	0.242398	0.234447	0.293263	
633000	-48769.929	7.726	0.229892	0.242398	0.234447	0.293263	
634000	-48750.329	7.730	0.219073	0.245201	0.237570	0.298157	
635000	-48771.335	7.725	0.219073	0.245201	0.237570	0.298157	
636000	-48760.005	7.754	0.219073	0.245201	0.237570	0.298157	
637000	-48751.772	7.735	0.227329	0.230247	0.234415	0.308009	
638000	-48754.673	7.717	0.218488	0.242041	0.243685	0.295786	
639000	-48763.241	7.817	0.218488	0.242041	0.243685	0.295786	
640000	-48734.742	7.744	0.228180	0.240633	0.235885	0.295302	
641000	-48741.492	7.737	0.228180	0.240633	0.235885	0.295302	
642000	-48749.359	7.742	0.221009	0.237741	0.232999	0.308251	
643000	-48766.240	7.821	0.221009	0.237741	0.232999	0.308251	
644000	-48748.096	7.842	0.223922	0.251305	0.229911	0.294862	
645000	-48749.555	7.873	0.219508	0.237089	0.234077	0.309327	
646000	-48761.594	7.836	0.219508	0.237089	0.234077	0.309327	
647000	-48740.019	7.817	0.219508	0.237089	0.234077	0.309327	
648000	-48740.250	7.881	0.232138	0.237899	0.225972	0.303992	
649000	-48750.519	7.918	0.216902	0.239113	0.241845	0.302139	
650000	-48743.595	7.885	0.221404	0.239791	0.244645	0.294159	
651000	-48736.432	7.769	0.221088	0.236012	0.233208	0.309691	
652000	-48739.029	7.806	0.224067	0.239521	0.231240	0.305173	
653000	-48751.355	7.854	0.224067	0.239521	0.231240	0.305173	
654000	-48748.004	7.818	0.224067	0.239521	0.231240	0.305173	
655000	-48734.069	7.832	0.214582	0.240411	0.231966	0.313040	
656000	-48737.374	7.840	0.216503	0.236546	0.233351	0.313601	
657000	-48721.959	7.813	0.225342	0.235123	0.230569	0.308965	
658000	-48714.836	7.820	0.225342	0.235123	0.230569	0.308965	
659000	-48715.744	7.811	0.221103	0.238698	0.244248	0.295952	
660000	-48726.845	7.814	0.223784	0.246098	0.224366	0.305752	
661000	-48742.137	7.794	0.215023	0.237912	0.241564	0.305500	
662000	-48757.802	7.801	0.215023	0.237912	0.241564	0.305500	
663000	-48766.808	7.802	0.215023	0.237912	0.241564	0.305500	
664000	-48753.161	7.825	0.229728	0.237507	0.227776	0.304989	
665000	-48763.373	7.851	0.222607	0.232244	0.236985	0.308164	
666000	-48748.855	7.790	0.222607	0.232244	0.236985	0.308164	
667000	-48776.811	7.877	0.222607	0.232244	0.236985	0.308164	
668000	-48759.923	7.888	0.227505	0.240679	0.236336	0.295480	
669000	-48774.752	7.904	0.227505	0.240679	0.236336	0.295480	
670000	-48803.179	7.851	0.227505	0.240679	0.236336	0.295480	
671000	-48785.977	7.798	0.224552	0.245040	0.230957	0.299451	
672000	-48786.350	7.780	0.224552	0.245040	0.230957	0.299451	
673000	-48785.673	7.844	0.224552	0.245040	0.230957	0.299451	
674000	-48783.912	7.863	0.222843	0.244283	0.237538	0.295336	
675000	-48779.602	7.827	0.220934	0.246288	0.236283	0.296495	
676000	-48781.343	7.784	0.218423	0.235317	0.241635	0.304625	
677000	-48761.168	7.759	0.225763	0.245995	0.232438	0.295803	
678000	-48725.326	7.835	0.225763	0.245995	0.232438	0.295803	
679000	-48721.182	7.764	0.225763	0.245995	0.232438	0.295803	
680000	-48734.769	7.718	0.225763	0.245995	0.232438	0.295803	
681000	-48742.154	7.738	0.229182	0.240271	0.229569	0.300977	
682000	-48732.360	7.703	0.229182	0.240271	0.229569	0.300977	
683000	-48750.143	7.710	0.224614	0.246333	0.233783	0.295269	
684000	-48750.128	7.720	0.224614	0.246333	0.233783	0.295269	
685000	-48751.746	7.682	0.224614	0.246333	0.233783	0.295269	
686000	-48740.017	7.668	0.224614	0.246333	0.233783	0.295269	
687000	-48729.371	7.831	0.224614	0.246333	0.233783	0.295269	
688000	-48742.789	7.788	0.224614	0.246333	0.233783	0.295269	
689000	-48753.147	7.817	0.218973	0.231892	0.237582	0.311553	
690000	-48731.609	7.817	0.218973	0.231892	0.237582	0.311553	
691000	-48727.994	7.756	0.217309	0.244057	0.244400	0.294233	
692000	-48740.687	7.765	0.219101	0.248835	0.236656	0.295407	
693000	-48737.775	7.752	0.221987	0.242815	0.225015	0.310183	
694000	-48732.405	7.758	0.226130	0.246492	0.229416	0.297963	
695000	-48740.726	7.743	0.226130	0.246492	0.229416	0.297963	
696000	-48731.613	7.768	0.226130	0.246492	0.229416	0.297963	
697000	-48726.132	7.818	0.226130	0.246492	0.229416	0.297963	
698000	-48738.048	7.780	0.226130	0.246492	0.229416	0.297963	
699000	-48735.375	7.795	0.221827	0.243182	0.238997	0.295994	
700000	-48741.215	7.768	0.221827	0.243182	0.238997	0.295994	
701000	-48733.523	7.733	0.221827	0.243182	0.238997	0.295994	
702000	-48718.558	7.733	0.222972	0.241718	0.237461	0.297850	
703000	-48719.447	7.738	0.219367	0.232335	0.238271	0.310027	
704000	-48724.669	7.775	0.213737	0.235400	0.242478	0.308385	
705000	-48734.324	7.787	0.227288	0.241879	0.235201	0.295633	
706000	-48748.074	7.721	0.220029	0.244246	0.233758	0.301967	
707000	-48784.432	7.758	0.230350	0.238361	0.234162	0.297126	
708000	-48794.760	7.774	0.222425	0.242849	0.230624	0.304102	
709000	-48800.393	7.777	0.222425	0.242849	0.230624	0.304102	
710000	-48784.036	7.789	0.222425	0.242849	0.230624	0.304102	
711000	-48772.062	7.819	0.222425	0.242849	0.230624	0.304102	
712000	-48750.782	7.793	0.222425	0.242849	0.230624	0.304102	
713000	-48752.428	7.793	0.222425	0.242849	0.230624	0.304102	
714000	-48769.375	7.818	0.229844	0.243201	0.228889	0.298066	
715000	-48756.381	7.819	0.215065	0.247686	0.228940	0.308309	
716000	-48749.097	7.773	0.224646	0.242839	0.233561	0.298954	
717000	-48756.676	7.812	0.224646	0.242839	0.233561	0.298954	
718000	-48797.055	7.867	0.217040	0.241157	0.238560	0.303243	
719000	-48781.278	7.911	0.227178	0.232848	0.233434	0.306540	
720000	-48767.262	7.910	0.224970	0.235517	0.229511	0.310001	
721000	-48732.752	7.864	0.228876	0.237548	0.235500	0.298076	
722000	-48729.322	7.825	0.228876	0.237548	0.235500	0.298076	
723000	-48738.902	7.822	0.228876	0.237548	0.235500	0.298076	
724000	-48750.423	7.816	0.220607	0.237738	0.236245	0.305409	
725000	-48756.718	7.796	0.220607	0.237738	0.236245	0.305409	
726000	-48761.719	7.787	0.220607	0.237738	0.236245	0.305409	
727000	-48745.059	7.780	0.220607	0.237738	0.236245	0.305409	
728000	-48758.541	7.805	0.222854	0.238253	0.239208	0.299684	
729000	-48775.864	7.777	0.222874	0.242001	0.230988	0.304137	
730000	-48776.340	7.749	0.222030	0.248478	0.228131	0.301360	
731000	-48787.701	7.774	0.228392	0.243408	0.232572	0.295628	
732000	-48783.460	7.750	0.228392	0.243408	0.232572	0.295628	
733000	-48778.162	7.763	0.226992	0.237428	0.233042	0.302538	
734000	-48754.985	7.776	0.226992	0.237428	0.233042	0.302538	
735000	-48770.451	7.816	0.219888	0.243674	0.235677	0.300761	
736000	-48753.779	7.737	0.219888	0.243674	0.235677	0.300761	
737000	-48744.606	7.713	0.219888	0.243674	0.235677	0.300761	
738000	-48750.425	7.692	0.219888	0.243674	0.235677	0.300761	
739000	-48742.592	7.758	0.219888	0.243674	0.235677	0.300761	
740000	-48742.312	7.738	0.219888	0.243674	0.235677	0.300761	
741000	-48749.925	7.748	0.221926	0.242435	0.234208	0.301431	
742000	-48762.192	7.783	0.221926	0.242435	0.234208	0.301431	
743000	-48741.865	7.768	0.229175	0.237809	0.231015	0.302001	
744000	-48742.501	7.752	0.229175	0.237809	0.231015	0.302001	
745000	-48739.478	7.770	0.229175	0.237809	0.231015	0.302001	
746000	-48747.192	7.791	0.221727	0.239381	0.237442	0.301451	
747000	-48737.553	7.761	0.221727	0.239381	0.237442	0.301451	
748000	-48747.087	7.768	0.221727	0.239381	0.237442	0.301451	
749000	-48747.330	7.783	0.221727	0.239381	0.237442	0.301451	
750000	-48744.155	7.803	0.221727	0.239381	0.237442	0.301451	
751000	-48738.046	7.812	0.221727	0.239381	0.237442	0.301451	
752000	-48738.376	7.811	0.226069	0.246046	0.233385	0.294500	
753000	-48746.514	7.809	0.226069	0.246046	0.233385	0.294500	
754000	-48751.872	7.763	0.213006	0.240917	0.238047	0.308031	
755000	-48753.669	7.761	0.213006	0.240917	0.238047	0.308031	
756000	-48734.274	7.760	0.215006	0.240537	0.238791	0.305666	
757000	-48728.882	7.748	0.215006	0.240537	0.238791	0.305666	
758000	-48725.354	7.725	0.216645	0.247043	0.231626	0.304686	
759000	-48715.097	7.806	0.216645	0.247043	0.231626	0.304686	
760000	-48724.967	7.808	0.226253	0.241371	0.237622	0.294755	
761000	-48729.440	7.825	0.224782	0.248815	0.229370	0.297033	
762000	-48704.755	7.705	0.225345	0.245765	0.236140	0.292750	
763000	-48705.450	7.647	0.225345	0.245765	0.236140	0.292750	
764000	-48728.569	7.640	0.225345	0.245765	0.236140	0.292750	
765000	-48710.891	7.712	0.225345	0.245765	0.236140	0.292750	
766000	-48636.053	8.089	0.214294	0.239937	0.234619	0.311150	
767000	-48543.682	8.070	0.226543	0.229850	0.241225	0.302382	
768000	-48430.236	8.065	0.228356	0.244687	0.238887	0.288070	
769000	-48370.437	7.947	0.223853	0.235405	0.247374	0.293368	
770000	-48346.700	7.945	0.219468	0.236407	0.240109	0.304016	
771000	-48271.170	7.961	0.221560	0.235059	0.237260	0.306121	
772000	-48233.411	8.003	0.221560	0.235059	0.237260	0.306121	
773000	-48218.856	7.926	0.221560	0.235059	0.237260	0.306121	
774000	-48201.283	7.988	0.221560	0.235059	0.237260	0.306121	
775000	-48155.174	7.964	0.223569	0.235494	0.238724	0.302213	
776000	-48056.460	7.977	0.223569	0.235494	0.238724	0.302213	
777000	-48024.009	7.930	0.223569	0.235494	0.238724	0.302213	
778000	-47965.360	7.914	0.223569	0.235494	0.238724	0.302213	
779000	-47938.697	7.905	0.223569	0.235494	0.238724	0.302213	
780000	-47887.709	7.782	0.223569	0.235494	0.238724	0.302213	
781000	-47891.567	7.783	0.227238	0.240236	0.230586	0.301940	
782000	-47900.566	7.822	0.215216	0.237288	0.246024	0.301472	
783000	-47863.236	7.839	0.225045	0.241372	0.237177	0.296407	
784000	-47834.964	7.877	0.231790	0.237493	0.243692	0.287026	
785000	-47836.891	7.864	0.231790	0.237493	0.243692	0.287026	
786000	-47784.027	7.760	0.225194	0.240399	0.246355	0.288053	
787000	-47750.621	7.718	0.225194	0.240399	0.246355	0.288053	
788000	-47734.671	7.687	0.225194	0.240399	0.246355	0.288053	
789000	-47724.395	7.675	0.225194	0.240399	0.246355	0.288053	
790000	-47678.168	7.656	0.225194	0.240399	0.246355	0.288053	
791000	-47674.604	7.683	0.223425	0.243957	0.234093	0.298524	
792000	-47686.719	7.636	0.223425	0.243957	0.234093	0.298524	
793000	-47703.807	7.631	0.223425	0.243957	0.234093	0.298524	
794000	-47682.738	7.607	0.223425	0.243957	0.234093	0.298524	
795000	-47671.045	7.541	0.223425	0.243957	0.234093	0.298524	
796000	-47649.638	7.545	0.225708	0.240548	0.243575	0.290168	
797000	-47612.578	7.509	0.225708	0.240548	0.243575	0.290168	
798000	-47614.145	7.430	0.225708	0.240548	0.243575	0.290168	
799000	-47629.848	7.472	0.221655	0.243035	0.236391	0.298918	
800000	-47636.201	7.430	0.228616	0.241815	0.243165	0.286404	
801000	-47638.319	7.478	0.234528	0.240760	0.232770	0.291942	
802000	-47622.592	7.510	0.222266	0.242565	0.243327	0.291842	
803000	-47639.403	7.508	0.222266	0.242565	0.243327	0.291842	
804000	-47641.195	7.448	0.214910	0.250888	0.247565	0.286638	
805000	-47619.754	7.440	0.214910	0.250888	0.247565	0.286638	
806000	-47610.417	7.450	0.215810	0.236398	0.250321	0.297472	
807000	-47591.703	7.448	0.218098	0.245963	0.248092	0.287847	
808000	-47581.614	7.416	0.212807	0.239882	0.250067	0.297244	
809000	-47565.062	7.385	0.224690	0.250184	0.236886	0.288241	
810000	-47575.728	7.382	0.224690	0.250184	0.236886	0.288241	
811000	-47577.237	7.432	0.235653	0.240628	0.239349	0.284369	
812000	-47589.533	7.422	0.235653	0.240628	0.239349	0.284369	
813000	-47524.055	7.391	0.216445	0.240604	0.237102	0.305848	
814000	-47514.407	7.413	0.230074	0.235156	0.243252	0.291518	
815000	-47505.083	7.382	0.227955	0.237789	0.241541	0.292715	
816000	-47512.359	7.374	0.227955	0.237789	0.241541	0.292715	
817000	-47508.842	7.301	0.227955	0.237789	0.241541	0.292715	
818000	-47523.317	7.317	0.227955	0.237789	0.241541	0.292715	
819000	-47496.490	7.325	0.228805	0.242163	0.240223	0.288809	
820000	-47479.769	7.344	0.224488	0.246979	0.242786	0.285747	
821000	-47467.907	7.343	0.237176	0.242801	0.240979	0.279044	
822000	-47450.770	7.346	0.228737	0.246769	0.239196	0.285297	
823000	-47425.260	7.428	0.231470	0.240301	0.234299	0.293931	
824000	-47422.092	7.415	0.221159	0.245477	0.236307	0.297058	
825000	-47402.522	7.364	0.221159	0.245477	0.236307	0.297058	
826000	-47397.611	7.328	0.221159	0.245477	0.236307	0.297058	
827000	-47389.401	7.324	0.221159	0.245477	0.236307	0.297058	
828000	-47389.312	7.336	0.229090	0.246946	0.242057	0.281907	
829000	-47389.870	7.304	0.229090	0.246946	0.242057	0.281907	
830000	-47414.986	7.332	0.230688	0.246657	0.237853	0.284802	
831000	-47403.642	7.367	0.220260	0.247832	0.245728	0.286180	
832000	-47395.442	7.363	0.219560	0.239641	0.234836	0.305963	
833000	-47385.333	7.378	0.227435	0.237693	0.241204	0.293667	
834000	-47380.724	7.412	0.228345	0.245483	0.234415	0.291757	
835000	-47368.601	7.422	0.228345	0.245483	0.234415	0.291757	
836000	-47363.251	7.419	0.228345	0.245483	0.234415	0.291757	
837000	-47352.829	7.342	0.228345	0.245483	0.234415	0.291757	
838000	-47347.430	7.356	0.228345	0.245483	0.234415	0.291757	
839000	-47343.893	7.316	0.228345	0.245483	0.234415	0.291757	
840000	-47329.985	7.316	0.228345	0.245483	0.234415	0.291757	
841000	-47361.994	7.380	0.228345	0.245483	0.234415	0.291757	
842000	-47366.326	7.409	0.228345	0.245483	0.234415	0.291757	
843000	-47363.667	7.409	0.216802	0.244814	0.238641	0.299743	
844000	-47363.723	7.397	0.223861	0.248223	0.235200	0.292716	
845000	-47367.330	7.425	0.220804	0.237252	0.245011	0.296933	
846000	-47358.316	7.401	0.220804	0.237252	0.245011	0.296933	
847000	-47357.499	7.424	0.231540	0.236016	0.233874	0.298570	
848000	-47345.066	7.433	0.225130	0.253201	0.237264	0.284405	
849000	-47350.250	7.438	0.225130	0.253201	0.237264	0.284405	
850000	-47337.494	7.423	0.230953	0.250289	0.224751	0.294008	
851000	-47347.000	7.469	0.217856	0.243579	0.248196	0.290370	
852000	-47346.254	7.465	0.213231	0.241147	0.238008	0.307613	
853000	-47343.430	7.452	0.220913	0.245390	0.247095	0.286602	
854000	-47340.348	7.432	0.232211	0.249874	0.239040	0.278875	
855000	-47348.533	7.482	0.218860	0.248536	0.239534	0.293070	
856000	-47348.087	7.473	0.218860	0.248536	0.239534	0.293070	
857000	-47350.820	7.444	0.218860	0.248536	0.239534	0.293070	
858000	-47362.506	7.452	0.224887	0.246343	0.248698	0.280071	
859000	-47357.754	7.458	0.224887	0.246343	0.248698	0.280071	
860000	-47369.783	7.425	0.230735	0.235837	0.236284	0.297144	
861000	-47368.340	7.426	0.225112	0.248567	0.244117	0.282204	
862000	-47357.703	7.381	0.228211	0.247989	0.240186	0.283614	
863000	-47367.971	7.391	0.228211	0.247989	0.240186	0.283614	
864000	-47342.556	7.402	0.219229	0.237826	0.245753	0.297192	
865000	-47310.486	7.351	0.222487	0.239828	0.241461	0.296224	
866000	-47310.588	7.394	0.227956	0.241207	0.232984	0.297854	
867000	-47320.162	7.412	0.227956	0.241207	0.232984	0.297854	
868000	-47322.701	7.512	0.227956	0.241207	0.232984	0.297854	
869000	-47327.033	7.540	0.226357	0.246150	0.243801	0.283691	
870000	-47332.700	7.540	0.235005	0.246616	0.237852	0.280527	
871000	-47348.322	7.526	0.227037	0.250437	0.238609	0.283917	
872000	-47330.720	7.504	0.216580	0.247599	0.242800	0.293021	
873000	-47325.985	7.539	0.224645	0.238459	0.241858	0.295038	
874000	-47320.329	7.452	0.225605	0.253002	0.234338	0.287055	
875000	-47324.862	7.436	0.225605	0.253002	0.234338	0.287055	
876000	-47307.596	7.425	0.217184	0.246736	0.243094	0.292987	
877000	-47300.318	7.423	0.233164	0.232528	0.243692	0.290616	
878000	-47291.685	7.439	0.229905	0.235623	0.244707	0.289765	
879000	-47253.370	7.461	0.229905	0.235623	0.244707	0.289765	
880000	-47249.192	7.447	0.229905	0.235623	0.244707	0.289765	
881000	-47246.029	7.450	0.229905	0.235623	0.244707	0.289765	
882000	-47227.836	7.438	0.229905	0.235623	0.244707	0.289765	
883000	-47189.262	7.365	0.225338	0.239996	0.240993	0.293673	
884000	-47162.230	7.418	0.225338	0.239996	0.240993	0.293673	
885000	-47131.368	7.424	0.225338	0.239996	0.240993	0.293673	
886000	-47123.529	7.405	0.227908	0.236652	0.242289	0.293151	
887000	-47131.623	7.421	0.227908	0.236652	0.242289	0.293151	
888000	-47121.639	7.433	0.221081	0.246969	0.230579	0.301371	
889000	-47116.510	7.406	0.226830	0.249842	0.230877	0.292451	
890000	-47139.159	7.396	0.221015	0.236585	0.245708	0.296692	
891000	-47103.645	7.406	0.221015	0.236585	0.245708	0.296692	
892000	-47093.875	7.354	0.217997	0.246482	0.236993	0.298528	
893000	-47111.127	7.416	0.220573	0.239080	0.245083	0.295263	
894000	-47105.714	7.341	0.229198	0.248570	0.240028	0.282205	
895000	-47117.365	7.335	0.224623	0.236289	0.247012	0.292076	
896000	-47110.119	7.334	0.230916	0.244597	0.241274	0.283212	
897000	-47102.556	7.280	0.230353	0.248813	0.237338	0.283496	
898000	-47079.807	7.237	0.222951	0.249523	0.243544	0.283982	
899000	-47097.722	7.291	0.222766	0.243242	0.238696	0.295296	
900000	-47111.398	7.281	0.232729	0.237228	0.242334	0.287708	
901000	-47125.055	7.329	0.232729	0.237228	0.242334	0.287708	
902000	-47132.982	7.327	0.232729	0.237228	0.242334	0.287708	
903000	-47134.426	7.329	0.227553	0.239412	0.248730	0.284305	
904000	-47124.272	7.375	0.227553	0.239412	0.248730	0.284305	
905000	-47135.231	7.376	0.229154	0.246492	0.239573	0.284782	
906000	-47133.426	7.412	0.229154	0.246492	0.239573	0.284782	
907000	-47145.407	7.406	0.217729	0.242091	0.245588	0.294591	
908000	-47145.875	7.460	0.217729	0.242091	0.245588	0.294591	
909000	-47137.846	7.538	0.217729	0.242091	0.245588	0.294591	
910000	-47115.407	7.469	0.222997	0.248353	0.239855	0.288795	
911000	-47099.082	7.457	0.219122	0.241751	0.241599	0.297528	
912000	-47097.057	7.385	0.225039	0.246453	0.247214	0.281294	
913000	-47100.292	7.368	0.227555	0.243195	0.231134	0.298116	
914000	-47104.427	7.498	0.229285	0.249903	0.232653	0.288159	
915000	-47112.306	7.510	0.229285	0.249903	0.232653	0.288159	
916000	-47103.575	7.486	0.226503	0.245779	0.235610	0.292107	
917000	-47111.600	7.410	0.226503	0.245779	0.235610	0.292107	
918000	-47114.720	7.393	0.224190	0.245392	0.240609	0.289809	
919000	-47101.648	7.428	0.224190	0.245392	0.240609	0.289809	
920000	-47100.482	7.447	0.231014	0.241872	0.235208	0.291906	
921000	-47093.329	7.432	0.231014	0.241872	0.235208	0.291906	
922000	-47077.656	7.374	0.224545	0.243445	0.234916	0.297094	
923000	-47090.090	7.333	0.224545	0.243445	0.234916	0.297094	
924000	-47082.838	7.333	0.224545	0.243445	0.234916	0.297094	
925000	-47106.899	7.395	0.224545	0.243445	0.234916	0.297094	
926000	-47087.622	7.356	0.221461	0.243878	0.244581	0.290080	
927000	-47080.690	7.342	0.221461	0.243878	0.244581	0.290080	
928000	-47085.859	7.254	0.220330	0.240955	0.237151	0.301563	
929000	-47061.189	7.262	0.224316	0.240525	0.248130	0.287029	
930000	-47051.875	7.243	0.224316	0.240525	0.248130	0.287029	
931000	-47041.914	7.228	0.236606	0.235380	0.236470	0.291544	
932000	-47039.643	7.211	0.224121	0.250772	0.243745	0.281363	
933000	-47054.842	7.281	0.230430	0.240833	0.240832	0.287905	
934000	-47043.129	7.266	0.230430	0.240833	0.240832	0.287905	
935000	-47029.831	7.248	0.230885	0.246898	0.236774	0.285443	
936000	-47044.003	7.334	0.227360	0.238858	0.237308	0.296475	
937000	-47045.919	7.296	0.223441	0.247175	0.237194	0.292189	
938000	-47037.017	7.316	0.223441	0.247175	0.237194	0.292189	
939000	-47027.520	7.296	0.224720	0.247166	0.238369	0.289745	
940000	-47030.749	7.305	0.221688	0.243299	0.239382	0.295631	
941000	-47040.027	7.283	0.221688	0.243299	0.239382	0.295631	
942000	-47043.061	7.262	0.221688	0.243299	0.239382	0.295631	
943000	-47036.337	7.274	0.230133	0.238795	0.237309	0.293763	
944000	-47028.757	7.283	0.230133	0.238795	0.237309	0.293763	
945000	-47044.048	7.306	0.230133	0.238795	0.237309	0.293763	
946000	-47040.841	7.301	0.226772	0.242321	0.234564	0.296344	
947000	-47056.110	7.312	0.226772	0.242321	0.234564	0.296344	
948000	-47055.745	7.327	0.221316	0.242559	0.242427	0.293699	
949000	-47036.617	7.294	0.225656	0.238395	0.245911	0.290037	
950000	-47053.669	7.335	0.225309	0.237660	0.241109	0.295923	
951000	-47063.802	7.359	0.225309	0.237660	0.241109	0.295923	
952000	-47049.962	7.344	0.230461	0.242721	0.236453	0.290365	
953000	-47072.128	7.371	0.218235	0.243989	0.236804	0.300972	
954000	-47054.878	7.372	0.228887	0.248167	0.230995	0.291952	
955000	-47050.424	7.333	0.227012	0.246351	0.238317	0.288320	
956000	-47048.599	7.326	0.225687	0.240574	0.237694	0.296045	
957000	-47057.345	7.339	0.230621	0.239823	0.233618	0.295937	
958000	-47054.474	7.341	0.230621	0.239823	0.233618	0.295937	
959000	-47043.945	7.311	0.221960	0.238981	0.237137	0.301922	
960000	-47051.852	7.272	0.221960	0.238981	0.237137	0.301922	
961000	-47049.807	7.275	0.221960	0.238981	0.237137	0.301922	
962000	-47044.063	7.274	0.221960	0.238981	0.237137	0.301922	
963000	-47054.373	7.262	0.225680	0.246833	0.231603	0.295884	
964000	-47077.462	7.323	0.229388	0.237160	0.242853	0.290599	
965000	-47090.539	7.354	0.229388	0.237160	0.242853	0.290599	
966000	-47096.074	7.330	0.232062	0.239624	0.237966	0.290347	
967000	-47080.413	7.341	0.219654	0.248560	0.240829	0.290958	
968000	-47077.802	7.364	0.219654	0.248560	0.240829	0.290958	
969000	-47041.677	7.300	0.225176	0.242739	0.243248	0.288838	
970000	-47046.050	7.316	0.225176	0.242739	0.243248	0.288838	
971000	-47058.561	7.287	0.225176	0.242739	0.243248	0.288838	
972000	-47061.866	7.351	0.225176	0.242739	0.243248	0.288838	
973000	-47066.115	7.329	0.226630	0.245589	0.238214	0.289567	
974000	-47051.466	7.319	0.227480	0.240155	0.244732	0.287633	
975000	-47052.821	7.322	0.225501	0.239590	0.241812	0.293097	
976000	-47068.788	7.303	0.225501	0.239590	0.241812	0.293097	
977000	-47070.653	7.336	0.234515	0.235765	0.238173	0.291547	
978000	-47071.690	7.310	0.234515	0.235765	0.238173	0.291547	
979000	-47044.904	7.288	0.231825	0.244245	0.236578	0.287352	
980000	-47042.734	7.301	0.231825	0.244245	0.236578	0.287352	
981000	-47051.848	7.283	0.220372	0.240367	0.236255	0.303006	
982000	-47051.042	7.257	0.229239	0.244081	0.231315	0.295364	
983000	-47054.481	7.288	0.229239	0.244081	0.231315	0.295364	
984000	-47065.456	7.280	0.229239	0.244081	0.231315	0.295364	
985000	-47079.357	7.341	0.229239	0.244081	0.231315	0.295364	
986000	-47063.250	7.296	0.229907	0.251327	0.235630	0.283136	
987000	-47068.854	7.295	0.231253	0.239965	0.243897	0.284885	
988000	-47074.588	7.320	0.228399	0.240731	0.242820	0.288050	
989000	-47099.273	7.316	0.229762	0.244433	0.238063	0.287742	
990000	-47076.168	7.311	0.226573	0.242706	0.240708	0.290013	
991000	-47086.920	7.295	0.226573	0.242706	0.240708	0.290013	
992000	-47098.835	7.261	0.226573	0.242706	0.240708	0.290013	
993000	-47091.118	7.222	0.219187	0.250656	0.242454	0.287703	
994000	-47090.020	7.212	0.219187	0.250656	0.242454	0.287703	
995000	-47083.275	7.184	0.229770	0.244546	0.235239	0.290445	
996000	-47074.459	7.195	0.225331	0.238610	0.247116	0.288943	
997000	-47075.033	7.197	0.222722	0.241483	0.239807	0.295989	
998000	-47056.523	7.190	0.234776	0.241108	0.239472	0.284644	
999000	-47050.869	7.182	0.230009	0.240621	0.236587	0.292783	
1000000	-47067.869	7.196	0.227407	0.244326	0.238431	0.289836	
