[ID: 7153488177]
Gen	LnL	TL	pi(A)	pi(C)	pi(G)	pi(T)	
1	-335582.594	108.476	0.250000	0.250000	0.250000	0.250000	
1000	-314137.388	103.239	0.226515	0.203021	0.208944	0.361520	
2000	-296697.877	98.365	0.228738	0.214471	0.210374	0.346416	
3000	-281788.081	93.945	0.221155	0.212841	0.210244	0.355760	
4000	-269809.799	90.969	0.224838	0.201821	0.214229	0.359112	
5000	-258004.146	84.890	0.222511	0.213132	0.216811	0.347546	
6000	-249100.613	80.781	0.222511	0.213132	0.216811	0.347546	
7000	-239380.593	78.065	0.221118	0.215933	0.209727	0.353223	
8000	-231093.764	74.348	0.215404	0.210100	0.218216	0.356280	
9000	-223637.873	70.672	0.215404	0.210100	0.218216	0.356280	
10000	-217785.303	68.156	0.215729	0.208520	0.220177	0.355574	
11000	-209000.109	65.350	0.215404	0.210100	0.218216	0.356280	
12000	-202761.473	62.738	0.215404	0.210100	0.218216	0.356280	
13000	-197463.844	60.408	0.215404	0.210100	0.218216	0.356280	
14000	-191790.951	57.782	0.210459	0.220834	0.220994	0.347714	
15000	-187663.934	55.965	0.210459	0.220834	0.220994	0.347714	
16000	-183507.346	53.991	0.210459	0.220834	0.220994	0.347714	
17000	-179858.956	52.287	0.213407	0.221669	0.224479	0.340445	
18000	-175872.688	50.452	0.215238	0.219953	0.222920	0.341890	
19000	-172506.959	48.545	0.215238	0.219953	0.222920	0.341890	
20000	-169699.216	47.013	0.215238	0.219953	0.222920	0.341890	
21000	-165680.179	45.157	0.215238	0.219953	0.222920	0.341890	
22000	-162317.528	43.684	0.215238	0.219953	0.222920	0.341890	
23000	-160457.676	42.910	0.215238	0.219953	0.222920	0.341890	
24000	-157877.086	41.909	0.215238	0.219953	0.222920	0.341890	
25000	-155486.050	40.660	0.215238	0.219953	0.222920	0.341890	
26000	-153325.396	39.388	0.209426	0.223477	0.221403	0.345693	
27000	-151473.203	37.942	0.206717	0.224866	0.227252	0.341165	
28000	-149197.545	37.148	0.208217	0.227541	0.227383	0.336859	
29000	-147626.787	35.993	0.209021	0.226121	0.225321	0.339537	
30000	-145923.964	35.023	0.198600	0.232015	0.226300	0.343085	
31000	-144280.692	34.519	0.210403	0.226168	0.226193	0.337236	
32000	-142164.475	33.512	0.210403	0.226168	0.226193	0.337236	
33000	-140239.717	32.683	0.210403	0.226168	0.226193	0.337236	
34000	-138405.720	32.112	0.210403	0.226168	0.226193	0.337236	
35000	-136642.989	31.462	0.210403	0.226168	0.226193	0.337236	
36000	-134880.938	30.174	0.206758	0.235399	0.224856	0.332987	
37000	-132681.509	29.615	0.206758	0.235399	0.224856	0.332987	
38000	-130106.024	29.024	0.206758	0.235399	0.224856	0.332987	
39000	-128019.872	28.636	0.206758	0.235399	0.224856	0.332987	
40000	-126369.212	28.364	0.203988	0.228471	0.224779	0.342762	
41000	-124716.596	27.971	0.203988	0.228471	0.224779	0.342762	
42000	-122693.014	27.666	0.203988	0.228471	0.224779	0.342762	
43000	-121646.223	27.033	0.203988	0.228471	0.224779	0.342762	
44000	-120194.080	26.362	0.203988	0.228471	0.224779	0.342762	
45000	-119067.913	26.061	0.203988	0.228471	0.224779	0.342762	
46000	-117900.202	25.677	0.203988	0.228471	0.224779	0.342762	
47000	-116975.638	25.393	0.203988	0.228471	0.224779	0.342762	
48000	-115787.907	24.889	0.203988	0.228471	0.224779	0.342762	
49000	-114616.756	24.354	0.201506	0.239799	0.224444	0.334250	
50000	-113699.218	23.838	0.198099	0.238765	0.227535	0.335601	
51000	-112500.278	23.384	0.210631	0.231784	0.224861	0.332725	
52000	-111891.359	23.306	0.201980	0.236845	0.231822	0.329352	
53000	-110914.680	22.756	0.201980	0.236845	0.231822	0.329352	
54000	-110261.988	22.713	0.201980	0.236845	0.231822	0.329352	
55000	-109356.601	22.499	0.201980	0.236845	0.231822	0.329352	
56000	-108197.676	22.269	0.201980	0.236845	0.231822	0.329352	
57000	-107414.624	21.811	0.201980	0.236845	0.231822	0.329352	
58000	-106944.449	21.588	0.203137	0.244281	0.226831	0.325752	
59000	-106128.531	21.329	0.202303	0.243747	0.227245	0.326705	
60000	-105607.144	21.023	0.207577	0.238741	0.222703	0.330980	
61000	-105214.967	21.025	0.207577	0.238741	0.222703	0.330980	
62000	-104358.878	20.932	0.207577	0.238741	0.222703	0.330980	
63000	-103479.532	20.695	0.207577	0.238741	0.222703	0.330980	
64000	-102769.534	20.438	0.207577	0.238741	0.222703	0.330980	
65000	-102015.741	20.332	0.200359	0.236994	0.233104	0.329544	
66000	-101305.704	20.136	0.200359	0.236994	0.233104	0.329544	
67000	-100734.840	19.831	0.200359	0.236994	0.233104	0.329544	
68000	-100172.863	19.284	0.200359	0.236994	0.233104	0.329544	
69000	-99274.936	19.189	0.200359	0.236994	0.233104	0.329544	
70000	-98623.751	18.852	0.200359	0.236994	0.233104	0.329544	
71000	-97943.152	18.545	0.200359	0.236994	0.233104	0.329544	
72000	-97596.927	18.517	0.200359	0.236994	0.233104	0.329544	
73000	-97159.018	18.212	0.200359	0.236994	0.233104	0.329544	
74000	-96412.793	17.993	0.200359	0.236994	0.233104	0.329544	
75000	-95504.771	17.906	0.200359	0.236994	0.233104	0.329544	
76000	-94040.270	17.702	0.200359	0.236994	0.233104	0.329544	
77000	-93093.828	17.606	0.201592	0.242583	0.233795	0.322029	
78000	-92498.027	17.316	0.201592	0.242583	0.233795	0.322029	
79000	-91813.513	17.073	0.201592	0.242583	0.233795	0.322029	
80000	-91479.940	16.880	0.201592	0.242583	0.233795	0.322029	
81000	-90897.732	16.631	0.201592	0.242583	0.233795	0.322029	
82000	-90345.406	16.584	0.201592	0.242583	0.233795	0.322029	
83000	-89625.645	16.414	0.205954	0.245459	0.227201	0.321386	
84000	-89097.515	16.250	0.205954	0.245459	0.227201	0.321386	
85000	-88877.477	16.039	0.205954	0.245459	0.227201	0.321386	
86000	-88706.796	15.921	0.205954	0.245459	0.227201	0.321386	
87000	-88448.318	15.989	0.205954	0.245459	0.227201	0.321386	
88000	-88340.822	15.919	0.203967	0.238157	0.237424	0.320451	
89000	-88217.910	15.829	0.203967	0.238157	0.237424	0.320451	
90000	-87843.594	15.814	0.203162	0.246705	0.230956	0.319178	
91000	-87711.296	15.707	0.203162	0.246705	0.230956	0.319178	
92000	-87390.360	15.623	0.203162	0.246705	0.230956	0.319178	
93000	-87234.205	15.544	0.199763	0.242644	0.237863	0.319731	
94000	-87115.229	15.399	0.212045	0.237616	0.230610	0.319729	
95000	-86976.813	15.133	0.216168	0.242607	0.235659	0.305566	
96000	-86786.796	15.171	0.210191	0.246251	0.238233	0.305325	
97000	-86595.644	15.268	0.210191	0.246251	0.238233	0.305325	
98000	-86257.913	15.111	0.210191	0.246251	0.238233	0.305325	
99000	-86228.151	15.015	0.210191	0.246251	0.238233	0.305325	
100000	-86054.959	14.935	0.210191	0.246251	0.238233	0.305325	
101000	-85915.648	14.873	0.207911	0.247524	0.240641	0.303923	
102000	-85745.316	14.827	0.207911	0.247524	0.240641	0.303923	
103000	-85709.732	14.820	0.206094	0.253178	0.225814	0.314914	
104000	-85450.420	14.691	0.206186	0.250771	0.227359	0.315684	
105000	-85366.540	14.775	0.206186	0.250771	0.227359	0.315684	
106000	-85191.401	14.538	0.206186	0.250771	0.227359	0.315684	
107000	-85147.802	14.514	0.209332	0.258783	0.233771	0.298114	
108000	-85095.323	14.480	0.209332	0.258783	0.233771	0.298114	
109000	-85010.609	14.517	0.215087	0.253856	0.236813	0.294244	
110000	-84987.597	14.521	0.215087	0.253856	0.236813	0.294244	
111000	-84909.555	14.460	0.215725	0.250205	0.234284	0.299786	
112000	-84833.030	14.475	0.212332	0.249902	0.235274	0.302492	
113000	-84821.681	14.444	0.212332	0.249902	0.235274	0.302492	
114000	-84032.502	15.199	0.216960	0.235298	0.226199	0.321543	
115000	-83395.902	14.990	0.216960	0.235298	0.226199	0.321543	
116000	-83143.028	14.965	0.216960	0.235298	0.226199	0.321543	
117000	-82244.795	14.948	0.216960	0.235298	0.226199	0.321543	
118000	-81372.491	14.872	0.216960	0.235298	0.226199	0.321543	
119000	-80870.356	14.704	0.211767	0.235568	0.233620	0.319045	
120000	-80635.448	14.487	0.214364	0.235486	0.233930	0.316219	
121000	-80479.362	14.303	0.211763	0.231532	0.229621	0.327085	
122000	-80272.931	14.075	0.211763	0.231532	0.229621	0.327085	
123000	-80120.956	14.182	0.211763	0.231532	0.229621	0.327085	
124000	-79753.896	14.160	0.211763	0.231532	0.229621	0.327085	
125000	-79659.252	13.935	0.213929	0.237828	0.229628	0.318616	
126000	-79475.950	13.825	0.210378	0.228376	0.232424	0.328821	
127000	-79351.227	13.827	0.212473	0.234305	0.228572	0.324649	
128000	-78896.281	13.728	0.212473	0.234305	0.228572	0.324649	
129000	-78745.646	13.595	0.212473	0.234305	0.228572	0.324649	
130000	-78558.229	13.521	0.212473	0.234305	0.228572	0.324649	
131000	-78416.204	13.535	0.212473	0.234305	0.228572	0.324649	
132000	-78295.768	13.486	0.212473	0.234305	0.228572	0.324649	
133000	-78227.629	13.468	0.212473	0.234305	0.228572	0.324649	
134000	-78176.487	13.668	0.214112	0.240709	0.235592	0.309586	
135000	-77684.887	13.579	0.214112	0.240709	0.235592	0.309586	
136000	-77070.580	13.526	0.214112	0.240709	0.235592	0.309586	
137000	-76479.378	13.438	0.214112	0.240709	0.235592	0.309586	
138000	-76095.305	13.535	0.210550	0.246231	0.231232	0.311986	
139000	-75622.668	13.470	0.210550	0.246231	0.231232	0.311986	
140000	-75125.392	13.532	0.212348	0.231190	0.226626	0.329837	
141000	-74058.330	13.266	0.218146	0.241868	0.227064	0.312922	
142000	-73344.397	13.050	0.218146	0.241868	0.227064	0.312922	
143000	-73010.723	12.883	0.218146	0.241868	0.227064	0.312922	
144000	-72398.410	12.705	0.218146	0.241868	0.227064	0.312922	
145000	-71693.052	12.641	0.218146	0.241868	0.227064	0.312922	
146000	-71327.104	12.580	0.218146	0.241868	0.227064	0.312922	
147000	-70704.855	12.318	0.218765	0.231371	0.235695	0.314170	
148000	-70387.231	12.249	0.218765	0.231371	0.235695	0.314170	
149000	-70191.888	12.030	0.218765	0.231371	0.235695	0.314170	
150000	-69728.048	11.902	0.203540	0.244311	0.235460	0.316689	
151000	-69358.923	12.034	0.212850	0.244340	0.238220	0.304590	
152000	-68651.062	11.951	0.212850	0.244340	0.238220	0.304590	
153000	-68567.169	11.926	0.210377	0.247925	0.237190	0.304509	
154000	-68041.296	11.874	0.207634	0.248427	0.234506	0.309433	
155000	-67463.182	11.947	0.213543	0.243811	0.232550	0.310096	
156000	-67197.082	12.022	0.213543	0.243811	0.232550	0.310096	
157000	-66918.471	11.827	0.215408	0.242112	0.233584	0.308896	
158000	-66768.363	11.805	0.215408	0.242112	0.233584	0.308896	
159000	-66537.227	11.714	0.215408	0.242112	0.233584	0.308896	
160000	-66427.525	11.672	0.215408	0.242112	0.233584	0.308896	
161000	-66201.119	11.516	0.215408	0.242112	0.233584	0.308896	
162000	-66059.738	11.496	0.215408	0.242112	0.233584	0.308896	
163000	-65714.414	11.461	0.215408	0.242112	0.233584	0.308896	
164000	-65606.197	11.298	0.215408	0.242112	0.233584	0.308896	
165000	-65401.796	11.283	0.207833	0.243613	0.236344	0.312210	
166000	-65321.936	11.263	0.207833	0.243613	0.236344	0.312210	
167000	-65269.240	11.287	0.216401	0.245619	0.232007	0.305973	
168000	-65138.563	11.052	0.208924	0.239597	0.244248	0.307230	
169000	-65117.609	11.002	0.217482	0.249827	0.236685	0.296006	
170000	-65074.918	10.998	0.217482	0.249827	0.236685	0.296006	
171000	-64857.068	11.043	0.216162	0.239803	0.239362	0.304674	
172000	-64773.501	10.960	0.207077	0.246986	0.229984	0.315953	
173000	-64698.209	10.821	0.218117	0.248151	0.238442	0.295290	
174000	-64607.886	10.954	0.215172	0.241508	0.236959	0.306361	
175000	-64552.967	10.846	0.215172	0.241508	0.236959	0.306361	
176000	-64520.481	10.878	0.210069	0.248705	0.241122	0.300104	
177000	-64465.015	10.799	0.210069	0.248705	0.241122	0.300104	
178000	-64458.327	10.763	0.210069	0.248705	0.241122	0.300104	
179000	-64439.690	10.701	0.210069	0.248705	0.241122	0.300104	
180000	-64369.376	10.650	0.210069	0.248705	0.241122	0.300104	
181000	-64267.591	10.530	0.210377	0.251721	0.239010	0.298892	
182000	-64216.775	10.474	0.214830	0.245894	0.242318	0.296958	
183000	-64166.435	10.504	0.214830	0.245894	0.242318	0.296958	
184000	-64165.331	10.517	0.214830	0.245894	0.242318	0.296958	
185000	-64087.616	10.385	0.214830	0.245894	0.242318	0.296958	
186000	-64084.554	10.413	0.214830	0.245894	0.242318	0.296958	
187000	-64059.007	10.362	0.218094	0.251165	0.246321	0.284420	
188000	-64039.307	10.352	0.219243	0.250459	0.238628	0.291669	
189000	-63987.300	10.363	0.220475	0.248669	0.239416	0.291440	
190000	-63968.325	10.336	0.218936	0.249795	0.236501	0.294768	
191000	-63971.430	10.331	0.206484	0.249309	0.237595	0.306613	
192000	-63940.912	10.383	0.215589	0.245664	0.243270	0.295477	
193000	-63933.124	10.279	0.215589	0.245664	0.243270	0.295477	
194000	-63926.137	10.299	0.215589	0.245664	0.243270	0.295477	
195000	-63933.231	10.286	0.210086	0.253312	0.245497	0.291105	
196000	-63916.909	10.287	0.210086	0.253312	0.245497	0.291105	
197000	-63916.079	10.276	0.210086	0.253312	0.245497	0.291105	
198000	-63869.181	10.213	0.211001	0.259989	0.238632	0.290379	
199000	-63818.764	10.196	0.221267	0.249484	0.235706	0.293544	
200000	-63802.937	10.239	0.221267	0.249484	0.235706	0.293544	
201000	-63800.801	10.179	0.221267	0.249484	0.235706	0.293544	
202000	-63774.422	10.224	0.219685	0.247628	0.235264	0.297423	
203000	-63434.092	10.146	0.213647	0.245340	0.246842	0.294172	
204000	-63320.078	10.204	0.216509	0.252041	0.229175	0.302275	
205000	-63100.439	10.209	0.213991	0.250531	0.230879	0.304598	
206000	-63011.085	10.188	0.209906	0.256590	0.242979	0.290525	
207000	-62976.518	10.164	0.216623	0.244240	0.235420	0.303717	
208000	-62584.251	10.090	0.216623	0.244240	0.235420	0.303717	
209000	-62580.538	10.089	0.214321	0.244353	0.240140	0.301186	
210000	-62500.194	10.031	0.214321	0.244353	0.240140	0.301186	
211000	-62506.015	9.995	0.214321	0.244353	0.240140	0.301186	
212000	-62469.973	10.026	0.214321	0.244353	0.240140	0.301186	
213000	-62458.298	10.039	0.214321	0.244353	0.240140	0.301186	
214000	-62449.243	10.019	0.214321	0.244353	0.240140	0.301186	
215000	-62429.857	10.024	0.209649	0.253597	0.241941	0.294813	
216000	-62366.921	10.052	0.214749	0.250857	0.235754	0.298641	
217000	-62298.033	9.946	0.210794	0.251977	0.239056	0.298173	
218000	-62295.646	9.984	0.210794	0.251977	0.239056	0.298173	
219000	-62278.553	9.975	0.210794	0.251977	0.239056	0.298173	
220000	-62237.230	9.922	0.212343	0.253454	0.234347	0.299857	
221000	-62188.669	9.920	0.215305	0.254919	0.233723	0.296054	
222000	-62174.491	9.915	0.219505	0.252160	0.234874	0.293461	
223000	-62148.223	9.933	0.219505	0.252160	0.234874	0.293461	
224000	-62130.956	9.822	0.219505	0.252160	0.234874	0.293461	
225000	-62106.760	9.846	0.210058	0.253289	0.238538	0.298115	
226000	-62075.175	9.736	0.210058	0.253289	0.238538	0.298115	
227000	-62040.345	9.758	0.210058	0.253289	0.238538	0.298115	
228000	-61976.320	9.774	0.210058	0.253289	0.238538	0.298115	
229000	-61962.692	9.868	0.210058	0.253289	0.238538	0.298115	
230000	-61952.578	9.854	0.210058	0.253289	0.238538	0.298115	
231000	-61963.771	9.902	0.210058	0.253289	0.238538	0.298115	
232000	-61916.810	9.911	0.210058	0.253289	0.238538	0.298115	
233000	-61919.621	9.937	0.210058	0.253289	0.238538	0.298115	
234000	-61903.050	9.905	0.210058	0.253289	0.238538	0.298115	
235000	-61896.358	9.843	0.210058	0.253289	0.238538	0.298115	
236000	-61913.780	9.853	0.210058	0.253289	0.238538	0.298115	
237000	-61900.177	9.872	0.210058	0.253289	0.238538	0.298115	
238000	-61894.255	9.860	0.211278	0.254033	0.238799	0.295890	
239000	-61832.749	9.855	0.211278	0.254033	0.238799	0.295890	
240000	-61798.293	9.861	0.211278	0.254033	0.238799	0.295890	
241000	-61732.412	9.888	0.209037	0.253338	0.238643	0.298981	
242000	-61705.926	9.827	0.209037	0.253338	0.238643	0.298981	
243000	-61693.498	9.819	0.216018	0.257103	0.240075	0.286804	
244000	-61687.518	9.840	0.216018	0.257103	0.240075	0.286804	
245000	-61678.361	9.856	0.211289	0.255946	0.237915	0.294850	
246000	-61652.404	9.754	0.216576	0.248120	0.229167	0.306137	
247000	-61648.680	9.827	0.211187	0.257902	0.242954	0.287957	
248000	-61622.424	9.773	0.211187	0.257902	0.242954	0.287957	
249000	-61593.007	9.710	0.211187	0.257902	0.242954	0.287957	
250000	-61541.759	9.688	0.211187	0.257902	0.242954	0.287957	
251000	-61425.048	9.653	0.210719	0.252747	0.246180	0.290353	
252000	-61400.685	9.647	0.213243	0.255970	0.240514	0.290272	
253000	-61388.015	9.674	0.213243	0.255970	0.240514	0.290272	
254000	-61412.378	9.687	0.213243	0.255970	0.240514	0.290272	
255000	-61005.297	9.672	0.213243	0.255970	0.240514	0.290272	
256000	-60935.777	9.655	0.213243	0.255970	0.240514	0.290272	
257000	-60876.225	9.595	0.220925	0.252239	0.230527	0.296309	
258000	-60832.219	9.601	0.220925	0.252239	0.230527	0.296309	
259000	-60814.807	9.659	0.220925	0.252239	0.230527	0.296309	
260000	-60627.726	9.691	0.213282	0.250733	0.239056	0.296929	
261000	-60617.565	9.674	0.222620	0.246215	0.239406	0.291759	
262000	-60232.268	9.696	0.222620	0.246215	0.239406	0.291759	
263000	-59980.183	9.746	0.211117	0.244681	0.237029	0.307173	
264000	-59981.138	9.807	0.213646	0.252799	0.227712	0.305843	
265000	-59555.706	9.855	0.213646	0.252799	0.227712	0.305843	
266000	-59415.560	9.767	0.218263	0.243894	0.239998	0.297845	
267000	-59321.074	9.654	0.221396	0.248914	0.226004	0.303687	
268000	-59244.557	9.639	0.214179	0.242854	0.243334	0.299632	
269000	-59179.150	9.555	0.215773	0.247810	0.227456	0.308961	
270000	-59141.848	9.636	0.215773	0.247810	0.227456	0.308961	
271000	-59110.810	9.627	0.215773	0.247810	0.227456	0.308961	
272000	-59083.975	9.669	0.218388	0.238318	0.228863	0.314431	
273000	-59055.566	9.600	0.225570	0.242993	0.223571	0.307866	
274000	-59026.213	9.573	0.212556	0.244179	0.223626	0.319639	
275000	-58958.166	9.492	0.216081	0.252606	0.227334	0.303979	
276000	-58938.008	9.490	0.216081	0.252606	0.227334	0.303979	
277000	-58831.376	9.448	0.216081	0.252606	0.227334	0.303979	
278000	-58725.779	9.482	0.216628	0.234668	0.233051	0.315652	
279000	-58725.394	9.481	0.216628	0.234668	0.233051	0.315652	
280000	-58504.135	9.488	0.217552	0.248041	0.227907	0.306500	
281000	-58395.000	9.576	0.217552	0.248041	0.227907	0.306500	
282000	-58154.522	9.541	0.216715	0.246434	0.223337	0.313514	
283000	-57944.793	9.530	0.216715	0.246434	0.223337	0.313514	
284000	-57190.328	9.500	0.222114	0.233763	0.228193	0.315930	
285000	-57100.337	9.460	0.222114	0.233763	0.228193	0.315930	
286000	-57048.196	9.518	0.222068	0.240303	0.228899	0.308731	
287000	-57011.568	9.439	0.215123	0.237435	0.239646	0.307796	
288000	-56725.128	9.356	0.214931	0.237609	0.228536	0.318924	
289000	-56614.920	9.372	0.207583	0.248383	0.235152	0.308883	
290000	-56365.325	9.385	0.213695	0.240250	0.231305	0.314750	
291000	-56229.843	9.408	0.213695	0.240250	0.231305	0.314750	
292000	-55781.024	9.223	0.213695	0.240250	0.231305	0.314750	
293000	-55707.709	9.147	0.213695	0.240250	0.231305	0.314750	
294000	-55615.796	9.148	0.213695	0.240250	0.231305	0.314750	
295000	-55483.253	9.063	0.213695	0.240250	0.231305	0.314750	
296000	-55162.787	9.086	0.213695	0.240250	0.231305	0.314750	
297000	-54767.528	8.894	0.213695	0.240250	0.231305	0.314750	
298000	-54630.113	8.849	0.222566	0.244475	0.226877	0.306083	
299000	-54440.191	8.752	0.223049	0.239907	0.228109	0.308935	
300000	-54298.775	8.831	0.221310	0.234707	0.229801	0.314182	
301000	-54210.368	8.787	0.221310	0.234707	0.229801	0.314182	
302000	-54168.540	8.847	0.221310	0.234707	0.229801	0.314182	
303000	-54103.386	8.840	0.221310	0.234707	0.229801	0.314182	
304000	-54045.440	8.819	0.215423	0.238165	0.232368	0.314045	
305000	-53960.890	8.764	0.215423	0.238165	0.232368	0.314045	
306000	-53939.372	8.758	0.215423	0.238165	0.232368	0.314045	
307000	-53910.499	8.775	0.215423	0.238165	0.232368	0.314045	
308000	-53817.013	8.713	0.215423	0.238165	0.232368	0.314045	
309000	-53786.898	8.677	0.215423	0.238165	0.232368	0.314045	
310000	-53764.643	8.622	0.215423	0.238165	0.232368	0.314045	
311000	-53755.937	8.621	0.217011	0.237692	0.233841	0.311457	
312000	-53707.776	8.571	0.218039	0.240286	0.235164	0.306511	
313000	-53677.555	8.553	0.218039	0.240286	0.235164	0.306511	
314000	-53634.448	8.591	0.222296	0.240689	0.227103	0.309912	
315000	-53631.064	8.567	0.222296	0.240689	0.227103	0.309912	
316000	-53618.917	8.529	0.222296	0.240689	0.227103	0.309912	
317000	-53603.374	8.477	0.229139	0.242496	0.228632	0.299734	
318000	-53610.937	8.546	0.229139	0.242496	0.228632	0.299734	
319000	-53574.744	8.547	0.224613	0.242070	0.224048	0.309269	
320000	-53562.466	8.555	0.224613	0.242070	0.224048	0.309269	
321000	-53520.782	8.535	0.219392	0.246680	0.234495	0.299433	
322000	-53429.501	8.500	0.219392	0.246680	0.234495	0.299433	
323000	-53409.852	8.479	0.215973	0.243378	0.232155	0.308494	
324000	-53378.180	8.505	0.215973	0.243378	0.232155	0.308494	
325000	-53394.838	8.527	0.215973	0.243378	0.232155	0.308494	
326000	-53377.065	8.500	0.217038	0.248238	0.234226	0.300498	
327000	-53333.770	8.546	0.214498	0.244720	0.233282	0.307500	
328000	-53318.266	8.495	0.214498	0.244720	0.233282	0.307500	
329000	-53302.262	8.481	0.214498	0.244720	0.233282	0.307500	
330000	-53278.785	8.450	0.221209	0.245877	0.239681	0.293233	
331000	-53286.064	8.434	0.221958	0.247892	0.237688	0.292462	
332000	-53283.176	8.345	0.227968	0.241847	0.231359	0.298825	
333000	-53272.683	8.279	0.227968	0.241847	0.231359	0.298825	
334000	-53271.780	8.300	0.219043	0.248200	0.228265	0.304491	
335000	-53270.404	8.278	0.219043	0.248200	0.228265	0.304491	
336000	-53178.161	8.396	0.221906	0.237838	0.235082	0.305175	
337000	-53047.586	8.413	0.227154	0.237257	0.236035	0.299555	
338000	-53014.792	8.417	0.227154	0.237257	0.236035	0.299555	
339000	-53006.570	8.359	0.223458	0.243135	0.230560	0.302847	
340000	-52749.456	8.380	0.223458	0.243135	0.230560	0.302847	
341000	-52748.846	8.383	0.223458	0.243135	0.230560	0.302847	
342000	-52425.806	8.390	0.219638	0.248844	0.225904	0.305614	
343000	-52068.309	8.445	0.219638	0.248844	0.225904	0.305614	
344000	-51998.793	8.429	0.219888	0.246099	0.239604	0.294409	
345000	-51751.972	8.388	0.219888	0.246099	0.239604	0.294409	
346000	-51441.180	8.365	0.233359	0.238592	0.224833	0.303216	
347000	-51049.116	8.378	0.220100	0.243638	0.227919	0.308343	
348000	-50713.939	8.343	0.220100	0.243638	0.227919	0.308343	
349000	-50486.622	8.389	0.220100	0.243638	0.227919	0.308343	
350000	-50316.004	8.359	0.225141	0.235149	0.235880	0.303830	
351000	-50229.582	8.325	0.225141	0.235149	0.235880	0.303830	
352000	-49939.555	8.280	0.227125	0.243167	0.236756	0.292952	
353000	-49861.427	8.244	0.227125	0.243167	0.236756	0.292952	
354000	-49797.092	8.129	0.227125	0.243167	0.236756	0.292952	
355000	-49755.900	8.104	0.227125	0.243167	0.236756	0.292952	
356000	-49717.547	8.094	0.227125	0.243167	0.236756	0.292952	
357000	-49698.549	8.108	0.227125	0.243167	0.236756	0.292952	
358000	-49670.611	8.080	0.230036	0.239497	0.233380	0.297087	
359000	-49565.037	8.105	0.230036	0.239497	0.233380	0.297087	
360000	-49403.799	8.005	0.226579	0.240833	0.231980	0.300608	
361000	-49228.318	8.066	0.226579	0.240833	0.231980	0.300608	
362000	-49142.697	8.007	0.226579	0.240833	0.231980	0.300608	
363000	-49077.989	8.051	0.226579	0.240833	0.231980	0.300608	
364000	-49037.059	7.991	0.226579	0.240833	0.231980	0.300608	
365000	-49010.972	7.979	0.226579	0.240833	0.231980	0.300608	
366000	-48972.132	7.966	0.226262	0.241790	0.237251	0.294697	
367000	-48940.311	7.909	0.216638	0.241581	0.240691	0.301090	
368000	-48896.601	7.948	0.220271	0.247923	0.236038	0.295767	
369000	-48832.113	7.849	0.227143	0.238950	0.236996	0.296910	
370000	-48823.226	7.779	0.227439	0.249312	0.232523	0.290726	
371000	-48800.922	7.767	0.227439	0.249312	0.232523	0.290726	
372000	-48781.439	7.737	0.227439	0.249312	0.232523	0.290726	
373000	-48743.292	7.747	0.224050	0.253917	0.234722	0.287311	
374000	-48720.120	7.765	0.225322	0.242266	0.229222	0.303190	
375000	-48707.799	7.831	0.222408	0.244696	0.229292	0.303605	
376000	-48688.356	7.762	0.222408	0.244696	0.229292	0.303605	
377000	-48673.121	7.780	0.227470	0.243861	0.235216	0.293452	
378000	-48662.425	7.734	0.227470	0.243861	0.235216	0.293452	
379000	-48672.341	7.758	0.227470	0.243861	0.235216	0.293452	
380000	-48658.024	7.771	0.227470	0.243861	0.235216	0.293452	
381000	-48655.522	7.739	0.227470	0.243861	0.235216	0.293452	
382000	-48650.319	7.748	0.227470	0.243861	0.235216	0.293452	
383000	-48647.767	7.753	0.227427	0.248403	0.230542	0.293628	
384000	-48643.028	7.707	0.232024	0.247084	0.232956	0.287937	
385000	-48607.750	7.649	0.235289	0.244369	0.235597	0.284745	
386000	-48579.098	7.601	0.225212	0.246154	0.226954	0.301681	
387000	-48576.325	7.638	0.230620	0.246230	0.234224	0.288925	
388000	-48580.723	7.639	0.231557	0.242550	0.233619	0.292273	
389000	-48578.346	7.640	0.233196	0.246255	0.235532	0.285017	
390000	-48601.210	7.672	0.228440	0.252450	0.239726	0.279384	
391000	-48586.744	7.671	0.227882	0.245883	0.232685	0.293549	
392000	-48518.311	7.668	0.227882	0.245883	0.232685	0.293549	
393000	-48528.862	7.659	0.227882	0.245883	0.232685	0.293549	
394000	-48529.813	7.650	0.220725	0.249796	0.242774	0.286705	
395000	-48545.933	7.674	0.220564	0.243484	0.242893	0.293059	
396000	-48555.621	7.721	0.220564	0.243484	0.242893	0.293059	
397000	-48560.962	7.754	0.220564	0.243484	0.242893	0.293059	
398000	-48543.551	7.762	0.220564	0.243484	0.242893	0.293059	
399000	-48502.811	7.657	0.220328	0.251940	0.232854	0.294877	
400000	-48485.642	7.610	0.220328	0.251940	0.232854	0.294877	
401000	-48450.050	7.592	0.220328	0.251940	0.232854	0.294877	
402000	-48451.847	7.578	0.223792	0.247250	0.237241	0.291717	
403000	-48431.806	7.590	0.234335	0.247779	0.233681	0.284205	
404000	-48428.738	7.585	0.234335	0.247779	0.233681	0.284205	
405000	-48425.978	7.582	0.233175	0.251811	0.227169	0.287845	
406000	-48415.235	7.537	0.230319	0.248242	0.230810	0.290628	
407000	-48420.530	7.549	0.230319	0.248242	0.230810	0.290628	
408000	-48390.382	7.530	0.230319	0.248242	0.230810	0.290628	
409000	-48377.185	7.511	0.230319	0.248242	0.230810	0.290628	
410000	-48371.520	7.517	0.223353	0.255547	0.237095	0.284006	
411000	-48372.496	7.432	0.223353	0.255547	0.237095	0.284006	
412000	-48362.012	7.441	0.223353	0.255547	0.237095	0.284006	
413000	-48355.319	7.450	0.228872	0.253056	0.233772	0.284299	
414000	-48349.200	7.433	0.221414	0.254751	0.238684	0.285152	
415000	-48376.251	7.467	0.225650	0.249478	0.233338	0.291534	
416000	-48390.301	7.515	0.226552	0.252186	0.243833	0.277429	
417000	-48393.450	7.508	0.226552	0.252186	0.243833	0.277429	
418000	-48375.712	7.583	0.226552	0.252186	0.243833	0.277429	
419000	-48370.915	7.566	0.226552	0.252186	0.243833	0.277429	
420000	-48370.940	7.521	0.226552	0.252186	0.243833	0.277429	
421000	-48376.955	7.527	0.226552	0.252186	0.243833	0.277429	
422000	-48380.710	7.562	0.233213	0.254183	0.235522	0.277082	
423000	-48394.428	7.498	0.236367	0.247269	0.232689	0.283675	
424000	-48383.488	7.527	0.225133	0.245836	0.234880	0.294151	
425000	-48369.788	7.534	0.225133	0.245836	0.234880	0.294151	
426000	-48363.703	7.489	0.224284	0.254092	0.237426	0.284198	
427000	-48380.923	7.563	0.224284	0.254092	0.237426	0.284198	
428000	-48374.895	7.564	0.224284	0.254092	0.237426	0.284198	
429000	-48372.970	7.608	0.222161	0.248750	0.230503	0.298586	
430000	-48368.129	7.594	0.222161	0.248750	0.230503	0.298586	
431000	-48352.561	7.548	0.222161	0.248750	0.230503	0.298586	
432000	-48352.742	7.585	0.224208	0.245108	0.239153	0.291531	
433000	-48350.935	7.559	0.224208	0.245108	0.239153	0.291531	
434000	-48347.434	7.509	0.224208	0.245108	0.239153	0.291531	
435000	-48334.445	7.522	0.224208	0.245108	0.239153	0.291531	
436000	-48304.645	7.519	0.225945	0.253630	0.233698	0.286727	
437000	-48260.203	7.476	0.225945	0.253630	0.233698	0.286727	
438000	-48253.741	7.495	0.228217	0.245203	0.243680	0.282901	
439000	-48242.138	7.528	0.222962	0.253426	0.237746	0.285866	
440000	-48217.150	7.511	0.227603	0.241361	0.247187	0.283849	
441000	-48207.993	7.514	0.222828	0.259126	0.231596	0.286450	
442000	-48086.235	7.471	0.241399	0.247363	0.232644	0.278593	
443000	-47949.064	7.526	0.237593	0.242155	0.231439	0.288814	
444000	-47920.229	7.612	0.237593	0.242155	0.231439	0.288814	
445000	-47848.835	7.521	0.237593	0.242155	0.231439	0.288814	
446000	-47827.883	7.482	0.227959	0.247931	0.227618	0.296492	
447000	-47796.343	7.467	0.220171	0.243822	0.238565	0.297442	
448000	-47784.466	7.454	0.231684	0.247468	0.224856	0.295992	
449000	-47765.025	7.457	0.237625	0.246078	0.236801	0.279496	
450000	-47716.519	7.455	0.223967	0.242382	0.234242	0.299409	
451000	-47664.480	7.470	0.223967	0.242382	0.234242	0.299409	
452000	-47657.471	7.460	0.223967	0.242382	0.234242	0.299409	
453000	-47648.597	7.410	0.223967	0.242382	0.234242	0.299409	
454000	-47555.103	7.393	0.233461	0.248803	0.235923	0.281812	
455000	-47556.941	7.412	0.229712	0.248135	0.242677	0.279476	
456000	-47526.568	7.380	0.232196	0.244848	0.234094	0.288863	
457000	-47479.431	7.352	0.232196	0.244848	0.234094	0.288863	
458000	-47431.701	7.397	0.226556	0.249298	0.229268	0.294877	
459000	-47425.630	7.337	0.227533	0.247016	0.231564	0.293887	
460000	-47412.874	7.408	0.227533	0.247016	0.231564	0.293887	
461000	-47420.068	7.397	0.227533	0.247016	0.231564	0.293887	
462000	-47432.611	7.378	0.227533	0.247016	0.231564	0.293887	
463000	-47392.923	7.375	0.227764	0.251608	0.238814	0.281814	
464000	-47381.562	7.386	0.222831	0.252972	0.237189	0.287008	
465000	-47351.821	7.377	0.227916	0.246382	0.237826	0.287876	
466000	-47350.322	7.385	0.227916	0.246382	0.237826	0.287876	
467000	-47348.554	7.387	0.227916	0.246382	0.237826	0.287876	
468000	-47350.944	7.339	0.223799	0.249046	0.237919	0.289235	
469000	-47367.544	7.354	0.223799	0.249046	0.237919	0.289235	
470000	-47370.674	7.343	0.228941	0.258477	0.231821	0.280761	
471000	-47321.086	7.284	0.229223	0.237824	0.229240	0.303712	
472000	-47320.185	7.253	0.220067	0.247433	0.241516	0.290984	
473000	-47302.692	7.234	0.220067	0.247433	0.241516	0.290984	
474000	-47265.632	7.219	0.225720	0.254428	0.234760	0.285091	
475000	-47270.686	7.238	0.225720	0.254428	0.234760	0.285091	
476000	-47292.802	7.270	0.225720	0.254428	0.234760	0.285091	
477000	-47316.253	7.213	0.225720	0.254428	0.234760	0.285091	
478000	-47304.992	7.256	0.225720	0.254428	0.234760	0.285091	
479000	-47300.434	7.187	0.226412	0.245288	0.241523	0.286777	
480000	-47281.792	7.205	0.226412	0.245288	0.241523	0.286777	
481000	-47232.669	7.195	0.226412	0.245288	0.241523	0.286777	
482000	-47211.339	7.239	0.226412	0.245288	0.241523	0.286777	
483000	-47218.082	7.220	0.226412	0.245288	0.241523	0.286777	
484000	-47227.724	7.264	0.226412	0.245288	0.241523	0.286777	
485000	-47214.365	7.207	0.226412	0.245288	0.241523	0.286777	
486000	-47216.892	7.238	0.226412	0.245288	0.241523	0.286777	
487000	-47215.823	7.225	0.226412	0.245288	0.241523	0.286777	
488000	-47229.273	7.281	0.234829	0.239852	0.235950	0.289368	
489000	-47218.688	7.326	0.233315	0.245702	0.231836	0.289147	
490000	-47221.792	7.338	0.233315	0.245702	0.231836	0.289147	
491000	-47204.732	7.358	0.233315	0.245702	0.231836	0.289147	
492000	-47181.463	7.354	0.233315	0.245702	0.231836	0.289147	
493000	-47180.757	7.330	0.233315	0.245702	0.231836	0.289147	
494000	-47140.005	7.313	0.226336	0.252472	0.236682	0.284510	
495000	-47147.174	7.302	0.226336	0.252472	0.236682	0.284510	
496000	-47158.885	7.287	0.226336	0.252472	0.236682	0.284510	
497000	-47154.579	7.302	0.230840	0.243933	0.232712	0.292514	
498000	-47145.978	7.287	0.230840	0.243933	0.232712	0.292514	
499000	-47136.605	7.286	0.226743	0.247332	0.239765	0.286159	
500000	-47130.452	7.309	0.226743	0.247332	0.239765	0.286159	
501000	-47129.920	7.303	0.226743	0.247332	0.239765	0.286159	
502000	-47142.310	7.346	0.231420	0.248098	0.232673	0.287810	
503000	-47150.633	7.307	0.231420	0.248098	0.232673	0.287810	
504000	-47150.662	7.261	0.219515	0.246736	0.233779	0.299969	
505000	-47143.399	7.326	0.234645	0.245055	0.240441	0.279859	
506000	-47150.042	7.350	0.223440	0.250357	0.230709	0.295494	
507000	-47147.471	7.327	0.223440	0.250357	0.230709	0.295494	
508000	-47133.454	7.305	0.223440	0.250357	0.230709	0.295494	
509000	-47141.561	7.309	0.223440	0.250357	0.230709	0.295494	
510000	-47123.392	7.306	0.223440	0.250357	0.230709	0.295494	
511000	-47119.615	7.271	0.225059	0.244072	0.239965	0.290904	
512000	-47127.383	7.291	0.225059	0.244072	0.239965	0.290904	
513000	-47135.008	7.288	0.225059	0.244072	0.239965	0.290904	
514000	-47146.023	7.219	0.229256	0.237155	0.239113	0.294476	
515000	-47128.422	7.149	0.229256	0.237155	0.239113	0.294476	
516000	-47124.034	7.145	0.241349	0.243701	0.232913	0.282037	
517000	-47128.280	7.147	0.226056	0.240793	0.239728	0.293423	
518000	-47129.104	7.172	0.223514	0.245518	0.229103	0.301865	
519000	-47132.082	7.154	0.226761	0.237318	0.238039	0.297883	
520000	-47119.737	7.185	0.229793	0.253066	0.234810	0.282330	
521000	-47098.241	7.177	0.230007	0.241925	0.244409	0.283659	
522000	-47102.873	7.206	0.230007	0.241925	0.244409	0.283659	
523000	-47092.878	7.201	0.230007	0.241925	0.244409	0.283659	
524000	-47099.936	7.214	0.225436	0.246933	0.231788	0.295842	
525000	-47117.828	7.194	0.232766	0.234352	0.241029	0.291854	
526000	-47114.308	7.204	0.232766	0.234352	0.241029	0.291854	
527000	-47106.428	7.230	0.238781	0.238564	0.237211	0.285443	
528000	-47146.215	7.254	0.238781	0.238564	0.237211	0.285443	
529000	-47139.691	7.302	0.238781	0.238564	0.237211	0.285443	
530000	-47138.239	7.327	0.226837	0.246746	0.237671	0.288746	
531000	-47156.105	7.284	0.226837	0.246746	0.237671	0.288746	
532000	-47157.723	7.344	0.226837	0.246746	0.237671	0.288746	
533000	-47152.129	7.381	0.226837	0.246746	0.237671	0.288746	
534000	-47132.035	7.355	0.226837	0.246746	0.237671	0.288746	
535000	-47135.836	7.333	0.233819	0.239031	0.237400	0.289750	
536000	-47161.874	7.411	0.222316	0.241915	0.233994	0.301775	
537000	-47163.089	7.357	0.230747	0.244169	0.239471	0.285612	
538000	-47165.403	7.391	0.230747	0.244169	0.239471	0.285612	
539000	-47177.332	7.364	0.224285	0.243554	0.238741	0.293419	
540000	-47167.384	7.333	0.232185	0.247392	0.233883	0.286539	
541000	-47148.156	7.320	0.232185	0.247392	0.233883	0.286539	
542000	-47152.343	7.293	0.229922	0.241277	0.237514	0.291287	
543000	-47147.808	7.301	0.230995	0.243959	0.240262	0.284784	
544000	-47143.273	7.299	0.230995	0.243959	0.240262	0.284784	
545000	-47120.978	7.191	0.230995	0.243959	0.240262	0.284784	
546000	-47111.972	7.205	0.230995	0.243959	0.240262	0.284784	
547000	-47113.597	7.216	0.230995	0.243959	0.240262	0.284784	
548000	-47126.609	7.230	0.227938	0.248474	0.239516	0.284072	
549000	-47092.498	7.246	0.227938	0.248474	0.239516	0.284072	
550000	-47096.127	7.216	0.227749	0.240348	0.240203	0.291700	
551000	-47099.058	7.210	0.227749	0.240348	0.240203	0.291700	
552000	-47113.561	7.246	0.227749	0.240348	0.240203	0.291700	
553000	-47116.230	7.257	0.227749	0.240348	0.240203	0.291700	
554000	-47131.622	7.262	0.227749	0.240348	0.240203	0.291700	
555000	-47141.553	7.278	0.227749	0.240348	0.240203	0.291700	
556000	-47161.042	7.275	0.219882	0.252553	0.242163	0.285401	
557000	-47132.345	7.259	0.235550	0.250899	0.232372	0.281180	
558000	-47121.378	7.236	0.229373	0.243820	0.240093	0.286714	
559000	-47133.151	7.266	0.229373	0.243820	0.240093	0.286714	
560000	-47131.799	7.257	0.229373	0.243820	0.240093	0.286714	
561000	-47131.557	7.259	0.229373	0.243820	0.240093	0.286714	
562000	-47139.828	7.303	0.233753	0.246790	0.235047	0.284410	
563000	-47139.069	7.287	0.233753	0.246790	0.235047	0.284410	
564000	-47115.306	7.262	0.236583	0.250836	0.238762	0.273819	
565000	-47104.705	7.286	0.224744	0.243169	0.241925	0.290162	
566000	-47096.949	7.289	0.234554	0.244219	0.231120	0.290106	
567000	-47096.432	7.284	0.219857	0.248714	0.241855	0.289574	
568000	-47107.746	7.256	0.219857	0.248714	0.241855	0.289574	
569000	-47078.960	7.249	0.226327	0.241104	0.241473	0.291095	
570000	-47087.595	7.243	0.225604	0.248773	0.232222	0.293401	
571000	-47097.349	7.285	0.225604	0.248773	0.232222	0.293401	
572000	-47128.055	7.296	0.225604	0.248773	0.232222	0.293401	
573000	-47126.892	7.272	0.225604	0.248773	0.232222	0.293401	
574000	-47137.732	7.268	0.225604	0.248773	0.232222	0.293401	
575000	-47146.948	7.239	0.225604	0.248773	0.232222	0.293401	
576000	-47144.765	7.261	0.227511	0.247662	0.246553	0.278274	
577000	-47155.988	7.272	0.227511	0.247662	0.246553	0.278274	
578000	-47144.856	7.276	0.233218	0.245806	0.229315	0.291661	
579000	-47144.234	7.283	0.229295	0.244560	0.233427	0.292718	
580000	-47098.323	7.268	0.229295	0.244560	0.233427	0.292718	
581000	-47108.210	7.234	0.229295	0.244560	0.233427	0.292718	
582000	-47086.374	7.245	0.221562	0.248156	0.230402	0.299880	
583000	-47082.670	7.221	0.218423	0.245444	0.244389	0.291744	
584000	-47068.677	7.201	0.235344	0.249987	0.235089	0.279581	
585000	-47054.279	7.276	0.224294	0.240021	0.237553	0.298132	
586000	-47055.193	7.271	0.228994	0.242813	0.232482	0.295711	
587000	-47055.927	7.258	0.218974	0.256943	0.236002	0.288081	
588000	-47034.487	7.209	0.217221	0.258219	0.237742	0.286817	
589000	-47026.078	7.246	0.226523	0.254510	0.235858	0.283109	
590000	-47001.466	7.183	0.226523	0.254510	0.235858	0.283109	
591000	-47011.108	7.196	0.226523	0.254510	0.235858	0.283109	
592000	-46998.435	7.178	0.226523	0.254510	0.235858	0.283109	
593000	-47003.604	7.168	0.231014	0.247990	0.238746	0.282250	
594000	-47031.063	7.278	0.226879	0.239509	0.238602	0.295010	
595000	-47033.844	7.268	0.226879	0.239509	0.238602	0.295010	
596000	-47044.306	7.241	0.234558	0.244620	0.243883	0.276938	
597000	-47034.587	7.185	0.234558	0.244620	0.243883	0.276938	
598000	-47033.505	7.185	0.214422	0.253721	0.243809	0.288048	
599000	-47038.874	7.160	0.214422	0.253721	0.243809	0.288048	
600000	-47046.293	7.138	0.223857	0.242909	0.246687	0.286547	
601000	-47050.500	7.159	0.223857	0.242909	0.246687	0.286547	
602000	-47022.811	7.143	0.223857	0.242909	0.246687	0.286547	
603000	-47056.409	7.163	0.219400	0.250869	0.236611	0.293120	
604000	-47075.262	7.165	0.231106	0.250672	0.231916	0.286305	
605000	-47076.069	7.124	0.229861	0.240852	0.233080	0.296206	
606000	-47075.288	7.112	0.226855	0.246185	0.233735	0.293225	
607000	-47067.084	7.111	0.227303	0.245661	0.244213	0.282823	
608000	-47062.362	7.081	0.227303	0.245661	0.244213	0.282823	
609000	-47068.376	7.158	0.227303	0.245661	0.244213	0.282823	
610000	-47083.941	7.232	0.226092	0.259576	0.242671	0.271661	
611000	-47093.501	7.147	0.224626	0.256408	0.237294	0.281672	
612000	-47101.459	7.156	0.231752	0.239402	0.235569	0.293277	
613000	-47081.985	7.177	0.231752	0.239402	0.235569	0.293277	
614000	-47065.211	7.211	0.233228	0.244991	0.235472	0.286309	
615000	-47056.048	7.262	0.233228	0.244991	0.235472	0.286309	
616000	-47063.893	7.221	0.233228	0.244991	0.235472	0.286309	
617000	-47071.327	7.235	0.224086	0.250663	0.235985	0.289265	
618000	-47064.849	7.243	0.224086	0.250663	0.235985	0.289265	
619000	-47073.680	7.198	0.224086	0.250663	0.235985	0.289265	
620000	-47064.781	7.203	0.229292	0.250981	0.237916	0.281811	
621000	-47075.334	7.216	0.229292	0.250981	0.237916	0.281811	
622000	-47058.001	7.227	0.216065	0.252592	0.236153	0.295190	
623000	-47043.019	7.182	0.214635	0.254206	0.242601	0.288558	
624000	-47058.457	7.177	0.229799	0.251325	0.243722	0.275153	
625000	-47049.846	7.162	0.229799	0.251325	0.243722	0.275153	
626000	-47035.994	7.133	0.223502	0.250683	0.244170	0.281644	
627000	-47042.420	7.172	0.223502	0.250683	0.244170	0.281644	
628000	-47023.254	7.186	0.231236	0.251718	0.238209	0.278837	
629000	-47018.507	7.174	0.224312	0.248737	0.237798	0.289152	
630000	-47018.067	7.178	0.224312	0.248737	0.237798	0.289152	
631000	-47028.170	7.180	0.224312	0.248737	0.237798	0.289152	
632000	-47024.857	7.115	0.233315	0.252470	0.235998	0.278217	
633000	-47031.285	7.131	0.233315	0.252470	0.235998	0.278217	
634000	-47034.942	7.176	0.232078	0.245049	0.240005	0.282868	
635000	-47030.535	7.175	0.217511	0.248481	0.248304	0.285704	
636000	-47035.941	7.210	0.233289	0.246633	0.239274	0.280803	
637000	-47035.240	7.210	0.233289	0.246633	0.239274	0.280803	
638000	-47048.287	7.190	0.233289	0.246633	0.239274	0.280803	
639000	-47040.265	7.203	0.220638	0.247809	0.240851	0.290702	
640000	-47057.077	7.218	0.220638	0.247809	0.240851	0.290702	
641000	-47047.074	7.243	0.235584	0.247373	0.234932	0.282110	
642000	-47063.326	7.196	0.235584	0.247373	0.234932	0.282110	
643000	-47051.223	7.201	0.235584	0.247373	0.234932	0.282110	
644000	-47030.806	7.161	0.229299	0.252584	0.230533	0.287585	
645000	-47043.333	7.228	0.234269	0.241500	0.236340	0.287891	
646000	-47029.405	7.242	0.232602	0.250272	0.239142	0.277983	
647000	-47034.995	7.213	0.232602	0.250272	0.239142	0.277983	
648000	-47030.719	7.223	0.232602	0.250272	0.239142	0.277983	
649000	-47029.924	7.214	0.232602	0.250272	0.239142	0.277983	
650000	-47035.700	7.237	0.232602	0.250272	0.239142	0.277983	
651000	-47032.618	7.291	0.226248	0.245019	0.239437	0.289296	
652000	-47046.401	7.311	0.227068	0.248465	0.233816	0.290650	
653000	-47062.064	7.319	0.230094	0.243656	0.245241	0.281009	
654000	-47069.299	7.333	0.230094	0.243656	0.245241	0.281009	
655000	-47076.561	7.328	0.221206	0.251252	0.235899	0.291644	
656000	-47076.125	7.319	0.227858	0.245911	0.243491	0.282740	
657000	-47077.980	7.319	0.226214	0.246539	0.245233	0.282014	
658000	-47070.118	7.310	0.226214	0.246539	0.245233	0.282014	
659000	-47047.918	7.278	0.225979	0.253886	0.234576	0.285559	
660000	-47059.758	7.282	0.224804	0.251410	0.227112	0.296674	
661000	-47043.468	7.241	0.223960	0.250983	0.243943	0.281114	
662000	-47039.237	7.182	0.223960	0.250983	0.243943	0.281114	
663000	-47033.996	7.190	0.223960	0.250983	0.243943	0.281114	
664000	-47046.076	7.164	0.222427	0.246480	0.243366	0.287727	
665000	-47049.827	7.136	0.222427	0.246480	0.243366	0.287727	
666000	-47048.905	7.202	0.222427	0.246480	0.243366	0.287727	
667000	-47042.696	7.213	0.230723	0.245014	0.242845	0.281418	
668000	-47035.758	7.169	0.230678	0.247840	0.240541	0.280940	
669000	-47044.978	7.228	0.230678	0.247840	0.240541	0.280940	
670000	-47049.681	7.218	0.229738	0.248239	0.234164	0.287859	
671000	-47074.054	7.236	0.229738	0.248239	0.234164	0.287859	
672000	-47083.786	7.260	0.229738	0.248239	0.234164	0.287859	
673000	-47085.485	7.243	0.229738	0.248239	0.234164	0.287859	
674000	-47075.501	7.201	0.220707	0.241645	0.242110	0.295537	
675000	-47078.167	7.240	0.229184	0.245666	0.233097	0.292053	
676000	-47087.689	7.214	0.229184	0.245666	0.233097	0.292053	
677000	-47093.898	7.217	0.229184	0.245666	0.233097	0.292053	
678000	-47084.654	7.209	0.229184	0.245666	0.233097	0.292053	
679000	-47063.851	7.167	0.221386	0.249567	0.238559	0.290488	
680000	-47059.971	7.191	0.228179	0.247792	0.231890	0.292139	
681000	-47060.187	7.206	0.228179	0.247792	0.231890	0.292139	
682000	-47054.305	7.204	0.228179	0.247792	0.231890	0.292139	
683000	-47059.584	7.246	0.228179	0.247792	0.231890	0.292139	
684000	-47071.295	7.307	0.228179	0.247792	0.231890	0.292139	
685000	-47075.805	7.303	0.224774	0.256243	0.238782	0.280201	
686000	-47077.978	7.254	0.218406	0.249812	0.244837	0.286946	
687000	-47085.660	7.268	0.228271	0.251105	0.240271	0.280353	
688000	-47076.359	7.253	0.228271	0.251105	0.240271	0.280353	
689000	-47077.204	7.302	0.228271	0.251105	0.240271	0.280353	
690000	-47077.282	7.307	0.228271	0.251105	0.240271	0.280353	
691000	-47075.055	7.296	0.228271	0.251105	0.240271	0.280353	
692000	-47057.913	7.268	0.228271	0.251105	0.240271	0.280353	
693000	-47057.325	7.354	0.228271	0.251105	0.240271	0.280353	
694000	-47060.605	7.395	0.233487	0.246434	0.228309	0.291769	
695000	-47052.381	7.307	0.235929	0.249338	0.230778	0.283955	
696000	-47056.990	7.249	0.235929	0.249338	0.230778	0.283955	
697000	-47050.694	7.200	0.235929	0.249338	0.230778	0.283955	
698000	-47073.506	7.253	0.229733	0.249760	0.237709	0.282798	
699000	-47080.798	7.293	0.230766	0.246921	0.237266	0.285047	
700000	-47074.167	7.315	0.230766	0.246921	0.237266	0.285047	
701000	-47063.043	7.278	0.230766	0.246921	0.237266	0.285047	
702000	-47044.832	7.232	0.230766	0.246921	0.237266	0.285047	
703000	-47041.071	7.234	0.230766	0.246921	0.237266	0.285047	
704000	-47031.301	7.263	0.230766	0.246921	0.237266	0.285047	
705000	-47038.186	7.268	0.227149	0.245732	0.238174	0.288945	
706000	-47017.890	7.265	0.227149	0.245732	0.238174	0.288945	
707000	-47006.977	7.220	0.227149	0.245732	0.238174	0.288945	
708000	-47015.370	7.170	0.227149	0.245732	0.238174	0.288945	
709000	-47015.716	7.249	0.230173	0.250213	0.231503	0.288111	
710000	-47010.837	7.221	0.216515	0.249823	0.245088	0.288574	
711000	-47009.714	7.212	0.216515	0.249823	0.245088	0.288574	
712000	-47018.311	7.206	0.235677	0.240547	0.234128	0.289648	
713000	-47023.300	7.226	0.227956	0.256445	0.227000	0.288598	
714000	-47019.177	7.161	0.224556	0.244267	0.240166	0.291012	
715000	-47034.696	7.117	0.219233	0.244289	0.237412	0.299065	
716000	-47025.230	7.096	0.219347	0.256517	0.236738	0.287398	
717000	-47030.171	7.092	0.219347	0.256517	0.236738	0.287398	
718000	-47042.295	7.097	0.234458	0.255097	0.238196	0.272249	
719000	-47046.535	7.115	0.233204	0.250468	0.240209	0.276119	
720000	-47066.418	7.139	0.223991	0.246816	0.241285	0.287908	
721000	-47081.884	7.161	0.223991	0.246816	0.241285	0.287908	
722000	-47070.695	7.131	0.223991	0.246816	0.241285	0.287908	
723000	-47069.209	7.132	0.223991	0.246816	0.241285	0.287908	
724000	-47077.365	7.128	0.223991	0.246816	0.241285	0.287908	
725000	-47093.251	7.153	0.223991	0.246816	0.241285	0.287908	
726000	-47108.435	7.152	0.223991	0.246816	0.241285	0.287908	
727000	-47085.272	7.170	0.223991	0.246816	0.241285	0.287908	
728000	-47092.417	7.188	0.223991	0.246816	0.241285	0.287908	
729000	-47073.060	7.230	0.223991	0.246816	0.241285	0.287908	
730000	-47061.763	7.239	0.223991	0.246816	0.241285	0.287908	
731000	-47072.066	7.199	0.223991	0.246816	0.241285	0.287908	
732000	-47057.731	7.194	0.223991	0.246816	0.241285	0.287908	
733000	-47059.170	7.193	0.233908	0.243621	0.238133	0.284338	
734000	-47057.475	7.224	0.223334	0.249258	0.240855	0.286554	
735000	-47033.945	7.225	0.223334	0.249258	0.240855	0.286554	
736000	-47036.892	7.248	0.223334	0.249258	0.240855	0.286554	
737000	-47046.519	7.273	0.228135	0.244868	0.237814	0.289183	
738000	-47031.701	7.282	0.228135	0.244868	0.237814	0.289183	
739000	-47035.367	7.233	0.229247	0.236438	0.240605	0.293710	
740000	-47059.203	7.257	0.227284	0.237890	0.237628	0.297198	
741000	-47060.607	7.261	0.235529	0.244447	0.237802	0.282223	
742000	-47057.929	7.286	0.232831	0.246778	0.233633	0.286759	
743000	-47058.186	7.286	0.225637	0.254731	0.236457	0.283176	
744000	-47063.574	7.238	0.225637	0.254731	0.236457	0.283176	
745000	-47077.014	7.245	0.225637	0.254731	0.236457	0.283176	
746000	-47060.800	7.225	0.229057	0.252198	0.240557	0.278188	
747000	-47063.781	7.215	0.226235	0.241297	0.244516	0.287951	
748000	-47057.304	7.182	0.226235	0.241297	0.244516	0.287951	
749000	-47048.622	7.174	0.226235	0.241297	0.244516	0.287951	
750000	-47050.578	7.177	0.226235	0.241297	0.244516	0.287951	
751000	-47047.032	7.164	0.226710	0.248794	0.236707	0.287788	
752000	-47045.199	7.177	0.226710	0.248794	0.236707	0.287788	
753000	-47047.492	7.182	0.226710	0.248794	0.236707	0.287788	
754000	-47028.206	7.181	0.226710	0.248794	0.236707	0.287788	
755000	-47018.949	7.171	0.226710	0.248794	0.236707	0.287788	
756000	-47031.106	7.203	0.226710	0.248794	0.236707	0.287788	
757000	-47030.453	7.227	0.229527	0.249309	0.240500	0.280664	
758000	-47027.443	7.244	0.226556	0.242582	0.244353	0.286510	
759000	-47031.247	7.256	0.226556	0.242582	0.244353	0.286510	
760000	-47023.852	7.270	0.226556	0.242582	0.244353	0.286510	
761000	-47019.861	7.295	0.226556	0.242582	0.244353	0.286510	
762000	-47048.999	7.314	0.226556	0.242582	0.244353	0.286510	
763000	-47047.524	7.303	0.226556	0.242582	0.244353	0.286510	
764000	-47043.834	7.305	0.226556	0.242582	0.244353	0.286510	
765000	-47070.489	7.306	0.226556	0.242582	0.244353	0.286510	
766000	-47078.229	7.300	0.226556	0.242582	0.244353	0.286510	
767000	-47077.456	7.218	0.235717	0.243541	0.232055	0.288687	
768000	-47047.754	7.175	0.235717	0.243541	0.232055	0.288687	
769000	-47052.969	7.173	0.235717	0.243541	0.232055	0.288687	
770000	-47059.545	7.200	0.235717	0.243541	0.232055	0.288687	
771000	-47069.980	7.175	0.230010	0.249903	0.231246	0.288841	
772000	-47067.775	7.179	0.230239	0.245814	0.241909	0.282038	
773000	-47065.249	7.120	0.220893	0.245464	0.240570	0.293074	
774000	-47087.237	7.147	0.221433	0.246422	0.238361	0.293785	
775000	-47099.195	7.176	0.221433	0.246422	0.238361	0.293785	
776000	-47087.994	7.192	0.227359	0.254455	0.227640	0.290545	
777000	-47081.562	7.190	0.227359	0.254455	0.227640	0.290545	
778000	-47078.377	7.188	0.230066	0.253934	0.237285	0.278715	
779000	-47077.503	7.173	0.234113	0.235924	0.235328	0.294635	
780000	-47075.308	7.158	0.222886	0.251678	0.230933	0.294503	
781000	-47044.454	7.200	0.222886	0.251678	0.230933	0.294503	
782000	-47056.478	7.233	0.230279	0.242026	0.244319	0.283375	
783000	-47058.587	7.227	0.230279	0.242026	0.244319	0.283375	
784000	-47073.265	7.257	0.223549	0.242919	0.236571	0.296961	
785000	-47073.668	7.323	0.223549	0.242919	0.236571	0.296961	
786000	-47077.909	7.334	0.223549	0.242919	0.236571	0.296961	
787000	-47067.480	7.300	0.223549	0.242919	0.236571	0.296961	
788000	-47053.912	7.259	0.224852	0.243219	0.236801	0.295129	
789000	-47049.698	7.245	0.223383	0.247684	0.241187	0.287746	
790000	-47044.306	7.209	0.223383	0.247684	0.241187	0.287746	
791000	-47028.559	7.221	0.223383	0.247684	0.241187	0.287746	
792000	-47016.672	7.171	0.223383	0.247684	0.241187	0.287746	
793000	-47043.306	7.268	0.223383	0.247684	0.241187	0.287746	
794000	-47057.579	7.198	0.223383	0.247684	0.241187	0.287746	
795000	-47078.893	7.231	0.223004	0.249895	0.236163	0.290938	
796000	-47069.599	7.195	0.242901	0.244562	0.229071	0.283466	
797000	-47062.617	7.184	0.236554	0.239778	0.251435	0.272233	
798000	-47062.200	7.205	0.228124	0.248269	0.237843	0.285764	
799000	-47051.233	7.232	0.223891	0.238915	0.238943	0.298251	
800000	-47036.656	7.226	0.216857	0.251078	0.244397	0.287669	
801000	-47022.425	7.309	0.227739	0.247631	0.239870	0.284760	
802000	-47048.027	7.369	0.227053	0.249898	0.232282	0.290766	
803000	-47048.534	7.355	0.227053	0.249898	0.232282	0.290766	
804000	-47080.355	7.379	0.227053	0.249898	0.232282	0.290766	
805000	-47056.514	7.291	0.227053	0.249898	0.232282	0.290766	
806000	-47068.636	7.378	0.227053	0.249898	0.232282	0.290766	
807000	-47061.105	7.374	0.227501	0.251825	0.237496	0.283177	
808000	-47078.922	7.388	0.227501	0.251825	0.237496	0.283177	
809000	-47091.500	7.391	0.224397	0.255370	0.234272	0.285961	
810000	-47104.338	7.393	0.224397	0.255370	0.234272	0.285961	
811000	-47083.690	7.320	0.233079	0.247983	0.231860	0.287078	
812000	-47074.735	7.319	0.233079	0.247983	0.231860	0.287078	
813000	-47058.339	7.314	0.223232	0.239472	0.239371	0.297925	
814000	-47065.693	7.350	0.221492	0.247389	0.244140	0.286979	
815000	-47074.972	7.379	0.219907	0.249108	0.241883	0.289102	
816000	-47076.829	7.346	0.217578	0.253983	0.236362	0.292077	
817000	-47078.973	7.356	0.233032	0.242544	0.238896	0.285527	
818000	-47054.811	7.327	0.225960	0.243547	0.234640	0.295852	
819000	-47045.100	7.353	0.225960	0.243547	0.234640	0.295852	
820000	-47045.778	7.375	0.229418	0.244228	0.240543	0.285812	
821000	-47022.463	7.341	0.229418	0.244228	0.240543	0.285812	
822000	-47051.638	7.355	0.229418	0.244228	0.240543	0.285812	
823000	-47057.028	7.300	0.229418	0.244228	0.240543	0.285812	
824000	-47067.233	7.309	0.227240	0.245193	0.234822	0.292745	
825000	-47055.206	7.296	0.227240	0.245193	0.234822	0.292745	
826000	-47061.376	7.318	0.227240	0.245193	0.234822	0.292745	
827000	-47065.304	7.381	0.233026	0.237662	0.235333	0.293979	
828000	-47048.246	7.405	0.233026	0.237662	0.235333	0.293979	
829000	-47046.209	7.429	0.220095	0.239582	0.241059	0.299265	
830000	-47019.699	7.396	0.231495	0.242015	0.240808	0.285682	
831000	-47029.750	7.390	0.224707	0.246009	0.239239	0.290045	
832000	-47037.871	7.413	0.224707	0.246009	0.239239	0.290045	
833000	-47035.900	7.310	0.224707	0.246009	0.239239	0.290045	
834000	-47035.177	7.311	0.224707	0.246009	0.239239	0.290045	
835000	-47043.554	7.351	0.224707	0.246009	0.239239	0.290045	
836000	-47031.488	7.296	0.224707	0.246009	0.239239	0.290045	
837000	-47039.217	7.287	0.224707	0.246009	0.239239	0.290045	
838000	-47037.499	7.268	0.229626	0.244821	0.239576	0.285977	
839000	-47027.289	7.202	0.223172	0.243955	0.233921	0.298952	
840000	-47028.602	7.208	0.228500	0.234900	0.242706	0.293894	
841000	-47037.217	7.263	0.225637	0.237615	0.241537	0.295211	
842000	-47044.714	7.268	0.235112	0.243303	0.234727	0.286858	
843000	-47038.798	7.230	0.235112	0.243303	0.234727	0.286858	
844000	-47045.349	7.292	0.228063	0.244123	0.233251	0.294563	
845000	-47027.124	7.265	0.226088	0.243389	0.235400	0.295123	
846000	-47016.575	7.270	0.233673	0.244640	0.231836	0.289851	
847000	-47021.997	7.262	0.233673	0.244640	0.231836	0.289851	
848000	-47017.112	7.202	0.233673	0.244640	0.231836	0.289851	
849000	-47014.789	7.194	0.219747	0.240866	0.242075	0.297311	
850000	-47024.061	7.232	0.227433	0.252185	0.228178	0.292205	
851000	-47035.095	7.247	0.231868	0.239668	0.247547	0.280917	
852000	-47045.114	7.268	0.233474	0.240395	0.234983	0.291148	
853000	-47038.815	7.268	0.233474	0.240395	0.234983	0.291148	
854000	-47056.379	7.268	0.230979	0.243663	0.237366	0.287992	
855000	-47063.708	7.290	0.228194	0.247233	0.235221	0.289352	
856000	-47053.584	7.277	0.231862	0.244033	0.237527	0.286578	
857000	-47049.437	7.248	0.231862	0.244033	0.237527	0.286578	
858000	-47058.863	7.320	0.231862	0.244033	0.237527	0.286578	
859000	-47055.563	7.304	0.230792	0.237252	0.235402	0.296554	
860000	-47030.616	7.350	0.230792	0.237252	0.235402	0.296554	
861000	-47036.810	7.397	0.232222	0.236180	0.244047	0.287551	
862000	-47046.062	7.381	0.229934	0.237577	0.241094	0.291395	
863000	-47056.283	7.362	0.229934	0.237577	0.241094	0.291395	
864000	-47040.914	7.306	0.230653	0.239998	0.238010	0.291339	
865000	-47064.327	7.265	0.230653	0.239998	0.238010	0.291339	
866000	-47053.998	7.254	0.230653	0.239998	0.238010	0.291339	
867000	-47045.284	7.263	0.227390	0.248633	0.228879	0.295098	
868000	-47041.108	7.246	0.227687	0.242808	0.245388	0.284118	
869000	-47025.365	7.237	0.224922	0.240035	0.243332	0.291711	
870000	-47004.833	7.254	0.226350	0.247376	0.230447	0.295828	
871000	-47007.912	7.260	0.226350	0.247376	0.230447	0.295828	
872000	-47021.627	7.255	0.221038	0.247399	0.239135	0.292428	
873000	-47026.542	7.234	0.222323	0.248495	0.238035	0.291147	
874000	-47019.176	7.226	0.222323	0.248495	0.238035	0.291147	
875000	-47016.266	7.132	0.232266	0.248580	0.234116	0.285039	
876000	-47038.920	7.159	0.229481	0.252049	0.237645	0.280825	
877000	-47038.736	7.202	0.229481	0.252049	0.237645	0.280825	
878000	-47032.702	7.173	0.229481	0.252049	0.237645	0.280825	
879000	-47038.358	7.211	0.229481	0.252049	0.237645	0.280825	
880000	-47034.460	7.134	0.229481	0.252049	0.237645	0.280825	
881000	-47021.009	7.144	0.229481	0.252049	0.237645	0.280825	
882000	-47024.563	7.163	0.229234	0.251393	0.234565	0.284808	
883000	-47043.106	7.210	0.231974	0.244754	0.230076	0.293197	
884000	-47069.993	7.287	0.231974	0.244754	0.230076	0.293197	
885000	-47069.877	7.251	0.222337	0.253401	0.239524	0.284739	
886000	-47064.673	7.187	0.236649	0.244311	0.228768	0.290271	
887000	-47047.467	7.154	0.233784	0.242045	0.231840	0.292331	
888000	-47042.864	7.130	0.226447	0.246132	0.238917	0.288504	
889000	-47039.100	7.124	0.226447	0.246132	0.238917	0.288504	
890000	-47044.958	7.093	0.226447	0.246132	0.238917	0.288504	
891000	-47050.633	7.044	0.226447	0.246132	0.238917	0.288504	
892000	-47036.030	7.018	0.226447	0.246132	0.238917	0.288504	
893000	-47056.568	7.040	0.226447	0.246132	0.238917	0.288504	
894000	-47053.997	7.068	0.226447	0.246132	0.238917	0.288504	
895000	-47040.341	7.107	0.226447	0.246132	0.238917	0.288504	
896000	-47052.414	7.182	0.226447	0.246132	0.238917	0.288504	
897000	-47042.348	7.191	0.226447	0.246132	0.238917	0.288504	
898000	-47040.411	7.212	0.227300	0.244403	0.242639	0.285658	
899000	-47062.175	7.190	0.227300	0.244403	0.242639	0.285658	
900000	-47073.221	7.187	0.227300	0.244403	0.242639	0.285658	
901000	-47076.089	7.189	0.234393	0.251426	0.235673	0.278507	
902000	-47064.917	7.206	0.223894	0.247178	0.236889	0.292039	
903000	-47071.204	7.227	0.223894	0.247178	0.236889	0.292039	
904000	-47047.097	7.204	0.223894	0.247178	0.236889	0.292039	
905000	-47047.162	7.232	0.229649	0.239382	0.240202	0.290768	
906000	-47041.348	7.275	0.229649	0.239382	0.240202	0.290768	
907000	-47040.951	7.247	0.230038	0.246247	0.226193	0.297522	
908000	-47047.753	7.267	0.231760	0.243325	0.234402	0.290513	
909000	-47044.575	7.244	0.231760	0.243325	0.234402	0.290513	
910000	-47041.690	7.238	0.231760	0.243325	0.234402	0.290513	
911000	-47047.785	7.251	0.231115	0.243280	0.241546	0.284059	
912000	-47037.570	7.270	0.225794	0.241281	0.243703	0.289222	
913000	-47041.995	7.297	0.225794	0.241281	0.243703	0.289222	
914000	-47038.550	7.275	0.233328	0.248673	0.238377	0.279622	
915000	-47060.265	7.316	0.233328	0.248673	0.238377	0.279622	
916000	-47059.907	7.335	0.233328	0.248673	0.238377	0.279622	
917000	-47048.154	7.314	0.231344	0.247455	0.237173	0.284029	
918000	-47059.301	7.299	0.231344	0.247455	0.237173	0.284029	
919000	-47036.061	7.281	0.231344	0.247455	0.237173	0.284029	
920000	-47011.177	7.268	0.231344	0.247455	0.237173	0.284029	
921000	-47011.593	7.176	0.222843	0.248367	0.247755	0.281035	
922000	-47000.117	7.218	0.221773	0.247517	0.246951	0.283759	
923000	-47002.036	7.226	0.221773	0.247517	0.246951	0.283759	
924000	-47005.703	7.249	0.230124	0.248578	0.237579	0.283719	
925000	-46999.877	7.258	0.230124	0.248578	0.237579	0.283719	
926000	-47029.563	7.293	0.230124	0.248578	0.237579	0.283719	
927000	-47023.599	7.264	0.230124	0.248578	0.237579	0.283719	
928000	-47020.904	7.287	0.230124	0.248578	0.237579	0.283719	
929000	-47032.014	7.287	0.230124	0.248578	0.237579	0.283719	
930000	-47025.394	7.266	0.230124	0.248578	0.237579	0.283719	
931000	-46987.294	7.203	0.230124	0.248578	0.237579	0.283719	
932000	-47012.785	7.234	0.230124	0.248578	0.237579	0.283719	
933000	-47016.491	7.237	0.230124	0.248578	0.237579	0.283719	
934000	-47038.335	7.206	0.225680	0.249866	0.242751	0.281703	
935000	-47040.365	7.222	0.232646	0.252714	0.230091	0.284549	
936000	-47058.201	7.246	0.230353	0.246508	0.241013	0.282126	
937000	-47054.760	7.279	0.230353	0.246508	0.241013	0.282126	
938000	-47051.793	7.302	0.224985	0.247984	0.227576	0.299455	
939000	-47027.494	7.280	0.231494	0.241417	0.233141	0.293948	
940000	-47007.630	7.239	0.229489	0.245631	0.234160	0.290720	
941000	-47017.294	7.199	0.229489	0.245631	0.234160	0.290720	
942000	-47033.318	7.249	0.229489	0.245631	0.234160	0.290720	
943000	-47041.066	7.232	0.229489	0.245631	0.234160	0.290720	
944000	-47044.653	7.248	0.229489	0.245631	0.234160	0.290720	
945000	-47052.914	7.297	0.228406	0.251937	0.226381	0.293276	
946000	-47068.014	7.334	0.220118	0.250142	0.244373	0.285366	
947000	-47050.779	7.312	0.228625	0.251473	0.231078	0.288825	
948000	-47059.909	7.337	0.237554	0.242292	0.230267	0.289887	
949000	-47084.085	7.381	0.228462	0.240223	0.240727	0.290588	
950000	-47075.087	7.436	0.228462	0.240223	0.240727	0.290588	
951000	-47066.956	7.430	0.226805	0.243700	0.235445	0.294050	
952000	-47067.397	7.343	0.226805	0.243700	0.235445	0.294050	
953000	-47043.952	7.390	0.228048	0.243695	0.240043	0.288214	
954000	-47067.570	7.368	0.228048	0.243695	0.240043	0.288214	
955000	-47080.446	7.436	0.228048	0.243695	0.240043	0.288214	
956000	-47069.470	7.429	0.228506	0.251624	0.233688	0.286183	
957000	-47091.893	7.428	0.228506	0.251624	0.233688	0.286183	
958000	-47103.436	7.391	0.224452	0.249990	0.238847	0.286710	
959000	-47091.938	7.422	0.224452	0.249990	0.238847	0.286710	
960000	-47081.479	7.405	0.224452	0.249990	0.238847	0.286710	
961000	-47080.328	7.408	0.222736	0.250357	0.235096	0.291810	
962000	-47067.366	7.400	0.226529	0.250805	0.231668	0.290998	
963000	-47047.155	7.324	0.231139	0.243521	0.228465	0.296876	
964000	-47043.150	7.323	0.227599	0.241713	0.238254	0.292434	
965000	-47025.562	7.302	0.224830	0.245147	0.241971	0.288052	
966000	-47044.062	7.222	0.230188	0.244001	0.243058	0.282752	
967000	-47041.132	7.243	0.230188	0.244001	0.243058	0.282752	
968000	-47037.159	7.162	0.232383	0.249112	0.233804	0.284701	
969000	-47027.829	7.150	0.223466	0.247889	0.237155	0.291490	
970000	-47052.817	7.178	0.223466	0.247889	0.237155	0.291490	
971000	-47051.689	7.228	0.231965	0.247541	0.235839	0.284655	
972000	-47056.470	7.256	0.231965	0.247541	0.235839	0.284655	
973000	-47055.826	7.264	0.231965	0.247541	0.235839	0.284655	
974000	-47044.020	7.281	0.231965	0.247541	0.235839	0.284655	
975000	-47056.145	7.262	0.231965	0.247541	0.235839	0.284655	
976000	-47066.458	7.274	0.231965	0.247541	0.235839	0.284655	
977000	-47052.028	7.335	0.231539	0.245764	0.235880	0.286816	
978000	-47071.190	7.393	0.231539	0.245764	0.235880	0.286816	
979000	-47058.098	7.391	0.233367	0.244656	0.233209	0.288768	
980000	-47049.738	7.373	0.233367	0.244656	0.233209	0.288768	
981000	-47048.221	7.323	0.230914	0.251853	0.237145	0.280087	
982000	-47016.932	7.257	0.225630	0.250089	0.244830	0.279451	
983000	-47036.492	7.238	0.236466	0.245371	0.225123	0.293041	
984000	-47046.035	7.177	0.227352	0.247670	0.243659	0.281319	
985000	-47019.494	7.188	0.227352	0.247670	0.243659	0.281319	
986000	-47015.256	7.163	0.227352	0.247670	0.243659	0.281319	
987000	-47007.810	7.186	0.241938	0.240333	0.235776	0.281954	
988000	-47017.457	7.170	0.237386	0.247354	0.222485	0.292775	
989000	-47012.989	7.196	0.229529	0.240234	0.239002	0.291235	
990000	-47024.975	7.242	0.219580	0.245406	0.244174	0.290840	
991000	-47020.111	7.268	0.233117	0.237873	0.236414	0.292596	
992000	-47014.530	7.249	0.226144	0.254478	0.235569	0.283809	
993000	-46998.737	7.247	0.226144	0.254478	0.235569	0.283809	
994000	-46998.509	7.221	0.218295	0.244309	0.240652	0.296744	
995000	-47014.024	7.219	0.230375	0.250559	0.226333	0.292734	
996000	-47022.946	7.282	0.230375	0.250559	0.226333	0.292734	
997000	-47031.008	7.249	0.228882	0.247903	0.237465	0.285750	
998000	-47010.670	7.210	0.228882	0.247903	0.237465	0.285750	
999000	-47040.622	7.257	0.228882	0.247903	0.237465	0.285750	
1000000	-47076.376	7.322	0.232439	0.247703	0.237882	0.281977	
