[ID: 7499451737]
Gen	LnL	TL	pi(A)	pi(C)	pi(G)	pi(T)	
1	-340182.925	108.500	0.212450	0.228182	0.256603	0.302765	
1000	-314488.370	102.955	0.225679	0.216871	0.225013	0.332437	
2000	-296359.237	99.127	0.219591	0.211175	0.218317	0.350918	
3000	-281229.458	94.769	0.219591	0.211175	0.218317	0.350918	
4000	-269323.873	89.968	0.219591	0.211175	0.218317	0.350918	
5000	-259637.659	86.212	0.219591	0.211175	0.218317	0.350918	
6000	-248986.674	80.911	0.219591	0.211175	0.218317	0.350918	
7000	-239344.885	77.690	0.219591	0.211175	0.218317	0.350918	
8000	-229794.743	74.446	0.219591	0.211175	0.218317	0.350918	
9000	-221820.871	71.089	0.219591	0.211175	0.218317	0.350918	
10000	-214930.434	68.313	0.219591	0.211175	0.218317	0.350918	
11000	-209269.671	65.818	0.210534	0.217278	0.225115	0.347073	
12000	-202352.347	62.806	0.210534	0.217278	0.225115	0.347073	
13000	-197133.168	60.300	0.210534	0.217278	0.225115	0.347073	
14000	-191774.362	57.205	0.217639	0.212399	0.222954	0.347009	
15000	-186701.582	55.026	0.214661	0.221472	0.222304	0.341563	
16000	-181949.790	53.012	0.218924	0.213906	0.218950	0.348219	
17000	-177042.658	50.615	0.218924	0.213906	0.218950	0.348219	
18000	-172820.021	48.568	0.209391	0.219708	0.230372	0.340529	
19000	-169314.246	46.909	0.210302	0.229184	0.221030	0.339484	
20000	-166284.345	45.362	0.210302	0.229184	0.221030	0.339484	
21000	-163745.192	44.034	0.213404	0.223823	0.219949	0.342824	
22000	-160014.755	43.180	0.211395	0.224296	0.223767	0.340543	
23000	-155986.213	41.898	0.211395	0.224296	0.223767	0.340543	
24000	-153393.845	40.336	0.211395	0.224296	0.223767	0.340543	
25000	-150361.384	39.183	0.211395	0.224296	0.223767	0.340543	
26000	-147493.558	38.025	0.211395	0.224296	0.223767	0.340543	
27000	-144571.115	36.906	0.211395	0.224296	0.223767	0.340543	
28000	-142021.113	36.034	0.211395	0.224296	0.223767	0.340543	
29000	-140378.570	35.306	0.211395	0.224296	0.223767	0.340543	
30000	-138341.455	34.058	0.211395	0.224296	0.223767	0.340543	
31000	-136824.240	33.221	0.211395	0.224296	0.223767	0.340543	
32000	-135023.407	32.560	0.211395	0.224296	0.223767	0.340543	
33000	-133507.030	31.814	0.211395	0.224296	0.223767	0.340543	
34000	-131788.088	30.944	0.206132	0.227015	0.227472	0.339382	
35000	-129798.407	30.142	0.211607	0.222881	0.223817	0.341695	
36000	-128544.818	29.513	0.211607	0.222881	0.223817	0.341695	
37000	-127468.147	29.094	0.211607	0.222881	0.223817	0.341695	
38000	-126279.794	28.170	0.211607	0.222881	0.223817	0.341695	
39000	-124972.827	29.149	0.204610	0.225021	0.228546	0.341823	
40000	-124093.374	28.459	0.204610	0.225021	0.228546	0.341823	
41000	-122069.793	28.194	0.206312	0.226966	0.223853	0.342869	
42000	-121107.800	27.557	0.206312	0.226966	0.223853	0.342869	
43000	-119716.969	27.226	0.206312	0.226966	0.223853	0.342869	
44000	-118628.331	26.524	0.206312	0.226966	0.223853	0.342869	
45000	-117909.241	26.028	0.206312	0.226966	0.223853	0.342869	
46000	-117139.956	25.682	0.206312	0.226966	0.223853	0.342869	
47000	-116222.403	24.767	0.202676	0.227372	0.226989	0.342963	
48000	-115069.496	24.423	0.203895	0.230282	0.229449	0.336375	
49000	-114152.097	24.190	0.203895	0.230282	0.229449	0.336375	
50000	-113566.868	23.718	0.203895	0.230282	0.229449	0.336375	
51000	-113076.778	23.396	0.203895	0.230282	0.229449	0.336375	
52000	-112318.399	23.057	0.203895	0.230282	0.229449	0.336375	
53000	-111573.060	22.867	0.203895	0.230282	0.229449	0.336375	
54000	-111106.106	22.574	0.203895	0.230282	0.229449	0.336375	
55000	-110484.081	22.294	0.203895	0.230282	0.229449	0.336375	
56000	-109734.569	22.130	0.203895	0.230282	0.229449	0.336375	
57000	-108793.361	21.886	0.203895	0.230282	0.229449	0.336375	
58000	-107891.869	21.641	0.203895	0.230282	0.229449	0.336375	
59000	-106523.593	21.364	0.203895	0.230282	0.229449	0.336375	
60000	-105749.677	21.026	0.203895	0.230282	0.229449	0.336375	
61000	-105065.899	20.903	0.203895	0.230282	0.229449	0.336375	
62000	-104491.240	20.536	0.203895	0.230282	0.229449	0.336375	
63000	-103737.046	20.064	0.203895	0.230282	0.229449	0.336375	
64000	-103152.604	19.974	0.203895	0.230282	0.229449	0.336375	
65000	-102488.221	19.757	0.203895	0.230282	0.229449	0.336375	
66000	-101828.017	19.816	0.207566	0.234125	0.226625	0.331685	
67000	-100995.801	19.702	0.207566	0.234125	0.226625	0.331685	
68000	-100464.012	19.306	0.207566	0.234125	0.226625	0.331685	
69000	-100196.626	19.135	0.207566	0.234125	0.226625	0.331685	
70000	-99857.747	18.904	0.207566	0.234125	0.226625	0.331685	
71000	-98569.247	18.799	0.207566	0.234125	0.226625	0.331685	
72000	-98133.517	18.667	0.207566	0.234125	0.226625	0.331685	
73000	-96674.044	18.577	0.207566	0.234125	0.226625	0.331685	
74000	-96250.066	18.517	0.207566	0.234125	0.226625	0.331685	
75000	-95353.883	18.300	0.207566	0.234125	0.226625	0.331685	
76000	-94717.596	18.245	0.207566	0.234125	0.226625	0.331685	
77000	-94285.891	18.177	0.207566	0.234125	0.226625	0.331685	
78000	-93828.136	17.837	0.202342	0.235458	0.233678	0.328522	
79000	-92467.018	17.684	0.205115	0.233968	0.230071	0.330847	
80000	-91296.758	17.599	0.205115	0.233968	0.230071	0.330847	
81000	-90793.734	17.498	0.201805	0.228780	0.228761	0.340654	
82000	-89826.267	17.249	0.205174	0.234583	0.232869	0.327374	
83000	-89076.120	17.128	0.205174	0.234583	0.232869	0.327374	
84000	-88443.434	17.105	0.205174	0.234583	0.232869	0.327374	
85000	-87898.333	16.878	0.205174	0.234583	0.232869	0.327374	
86000	-87134.676	16.762	0.205174	0.234583	0.232869	0.327374	
87000	-86761.936	16.550	0.205174	0.234583	0.232869	0.327374	
88000	-86106.098	16.410	0.205174	0.234583	0.232869	0.327374	
89000	-85925.244	16.341	0.205174	0.234583	0.232869	0.327374	
90000	-85694.921	16.123	0.205174	0.234583	0.232869	0.327374	
91000	-85379.709	16.206	0.205174	0.234583	0.232869	0.327374	
92000	-85161.127	15.962	0.205174	0.234583	0.232869	0.327374	
93000	-84964.303	15.827	0.207738	0.241526	0.230512	0.320223	
94000	-84818.678	15.782	0.207738	0.241526	0.230512	0.320223	
95000	-84505.703	15.690	0.207738	0.241526	0.230512	0.320223	
96000	-84396.016	15.656	0.207738	0.241526	0.230512	0.320223	
97000	-84268.449	15.586	0.207738	0.241526	0.230512	0.320223	
98000	-84152.872	15.505	0.207738	0.241526	0.230512	0.320223	
99000	-84008.286	15.487	0.207738	0.241526	0.230512	0.320223	
100000	-83933.028	15.384	0.207738	0.241526	0.230512	0.320223	
101000	-83741.274	15.287	0.207738	0.241526	0.230512	0.320223	
102000	-83634.347	15.146	0.207738	0.241526	0.230512	0.320223	
103000	-83528.605	15.058	0.207738	0.241526	0.230512	0.320223	
104000	-83386.674	15.024	0.207738	0.241526	0.230512	0.320223	
105000	-83296.136	14.866	0.207738	0.241526	0.230512	0.320223	
106000	-83129.051	14.634	0.207738	0.241526	0.230512	0.320223	
107000	-83019.085	14.638	0.207738	0.241526	0.230512	0.320223	
108000	-82954.888	14.675	0.207738	0.241526	0.230512	0.320223	
109000	-82801.406	14.647	0.208000	0.241374	0.230119	0.320507	
110000	-82586.273	14.565	0.209385	0.247030	0.234672	0.308913	
111000	-82510.937	14.524	0.209385	0.247030	0.234672	0.308913	
112000	-82397.860	14.466	0.209385	0.247030	0.234672	0.308913	
113000	-82143.592	14.431	0.209385	0.247030	0.234672	0.308913	
114000	-81959.440	14.397	0.209385	0.247030	0.234672	0.308913	
115000	-81698.290	14.422	0.209385	0.247030	0.234672	0.308913	
116000	-81419.804	14.356	0.210844	0.249031	0.227738	0.312387	
117000	-81358.870	14.344	0.210844	0.249031	0.227738	0.312387	
118000	-81258.965	14.218	0.206430	0.247450	0.230626	0.315494	
119000	-81176.949	14.218	0.215114	0.244113	0.237231	0.303543	
120000	-80998.420	14.237	0.212933	0.237611	0.231716	0.317740	
121000	-80923.123	14.207	0.207471	0.246742	0.233189	0.312598	
122000	-80833.992	14.140	0.207471	0.246742	0.233189	0.312598	
123000	-80629.687	14.079	0.207471	0.246742	0.233189	0.312598	
124000	-80461.296	14.093	0.211159	0.243209	0.238767	0.306866	
125000	-80285.273	14.013	0.211159	0.243209	0.238767	0.306866	
126000	-80208.097	14.091	0.211159	0.243209	0.238767	0.306866	
127000	-80020.410	14.085	0.208684	0.244022	0.227012	0.320282	
128000	-79721.692	13.989	0.208684	0.244022	0.227012	0.320282	
129000	-79632.796	13.915	0.203461	0.242967	0.232142	0.321430	
130000	-79161.383	14.616	0.206262	0.240905	0.225108	0.327725	
131000	-78772.792	14.497	0.214614	0.233820	0.217381	0.334185	
132000	-78284.345	14.384	0.218452	0.226408	0.229897	0.325242	
133000	-77804.958	14.327	0.214146	0.230480	0.227644	0.327730	
134000	-76967.407	14.175	0.214146	0.230480	0.227644	0.327730	
135000	-76810.190	14.059	0.214146	0.230480	0.227644	0.327730	
136000	-76475.161	13.908	0.214146	0.230480	0.227644	0.327730	
137000	-76045.438	13.781	0.207222	0.230201	0.231700	0.330877	
138000	-75661.813	13.798	0.207222	0.230201	0.231700	0.330877	
139000	-75503.399	13.677	0.215536	0.233868	0.225177	0.325419	
140000	-75343.810	13.696	0.215536	0.233868	0.225177	0.325419	
141000	-75145.288	13.581	0.215536	0.233868	0.225177	0.325419	
142000	-74827.961	13.447	0.206054	0.233194	0.232718	0.328034	
143000	-74406.737	13.401	0.207869	0.242472	0.236649	0.313010	
144000	-73689.499	13.426	0.208778	0.229077	0.237335	0.324809	
145000	-73342.995	13.374	0.215932	0.236220	0.219961	0.327888	
146000	-73061.686	13.320	0.212484	0.236964	0.230578	0.319975	
147000	-72909.794	13.467	0.212484	0.236964	0.230578	0.319975	
148000	-72679.964	13.339	0.212484	0.236964	0.230578	0.319975	
149000	-72308.098	13.149	0.208180	0.233045	0.229386	0.329389	
150000	-71897.044	13.061	0.208180	0.233045	0.229386	0.329389	
151000	-71757.419	12.946	0.208180	0.233045	0.229386	0.329389	
152000	-71364.488	12.835	0.208180	0.233045	0.229386	0.329389	
153000	-71125.816	12.814	0.212864	0.229843	0.237496	0.319797	
154000	-70560.731	12.682	0.213469	0.231156	0.233320	0.322054	
155000	-70413.986	12.589	0.213469	0.231156	0.233320	0.322054	
156000	-70176.082	12.347	0.213469	0.231156	0.233320	0.322054	
157000	-69911.540	12.290	0.213469	0.231156	0.233320	0.322054	
158000	-69696.849	12.286	0.213469	0.231156	0.233320	0.322054	
159000	-69584.875	12.208	0.213469	0.231156	0.233320	0.322054	
160000	-69264.407	12.078	0.213469	0.231156	0.233320	0.322054	
161000	-69019.239	12.053	0.215784	0.235339	0.232703	0.316175	
162000	-68744.965	11.981	0.215784	0.235339	0.232703	0.316175	
163000	-68464.041	11.902	0.215784	0.235339	0.232703	0.316175	
164000	-68167.437	11.775	0.217728	0.231736	0.232146	0.318391	
165000	-68088.778	11.914	0.217728	0.231736	0.232146	0.318391	
166000	-68018.429	11.957	0.217728	0.231736	0.232146	0.318391	
167000	-67954.980	11.944	0.217728	0.231736	0.232146	0.318391	
168000	-67876.803	11.845	0.217728	0.231736	0.232146	0.318391	
169000	-67760.089	11.631	0.217728	0.231736	0.232146	0.318391	
170000	-67718.136	11.579	0.217728	0.231736	0.232146	0.318391	
171000	-67646.686	11.517	0.217728	0.231736	0.232146	0.318391	
172000	-67602.668	11.455	0.214566	0.237242	0.240088	0.308104	
173000	-67596.648	11.490	0.214566	0.237242	0.240088	0.308104	
174000	-67538.313	11.549	0.209332	0.231650	0.238141	0.320878	
175000	-67505.826	11.638	0.209332	0.231650	0.238141	0.320878	
176000	-67492.459	11.585	0.212131	0.235202	0.239233	0.313433	
177000	-67481.364	11.533	0.212131	0.235202	0.239233	0.313433	
178000	-67456.991	11.520	0.212131	0.235202	0.239233	0.313433	
179000	-67437.661	11.507	0.212131	0.235202	0.239233	0.313433	
180000	-67437.295	11.589	0.212131	0.235202	0.239233	0.313433	
181000	-67445.427	11.631	0.212131	0.235202	0.239233	0.313433	
182000	-67366.891	11.582	0.212131	0.235202	0.239233	0.313433	
183000	-67349.999	11.492	0.212131	0.235202	0.239233	0.313433	
184000	-67300.077	11.467	0.207324	0.233786	0.243353	0.315537	
185000	-67293.591	11.489	0.211110	0.243082	0.232587	0.313221	
186000	-67223.010	11.486	0.211110	0.243082	0.232587	0.313221	
187000	-67210.115	11.470	0.211110	0.243082	0.232587	0.313221	
188000	-66961.979	11.505	0.211110	0.243082	0.232587	0.313221	
189000	-66914.230	11.435	0.211110	0.243082	0.232587	0.313221	
190000	-66890.645	11.339	0.211110	0.243082	0.232587	0.313221	
191000	-66852.886	11.347	0.211110	0.243082	0.232587	0.313221	
192000	-66842.787	11.389	0.211110	0.243082	0.232587	0.313221	
193000	-66776.017	11.346	0.211110	0.243082	0.232587	0.313221	
194000	-66567.282	11.397	0.211110	0.243082	0.232587	0.313221	
195000	-66566.339	11.309	0.211110	0.243082	0.232587	0.313221	
196000	-66472.081	11.392	0.211110	0.243082	0.232587	0.313221	
197000	-66384.457	11.504	0.208080	0.233038	0.239004	0.319878	
198000	-66273.545	11.355	0.212165	0.239701	0.232353	0.315781	
199000	-65836.183	11.363	0.212165	0.239701	0.232353	0.315781	
200000	-65678.756	11.354	0.212165	0.239701	0.232353	0.315781	
201000	-65660.551	11.318	0.212165	0.239701	0.232353	0.315781	
202000	-65628.672	11.224	0.210111	0.240583	0.232578	0.316729	
203000	-65586.778	11.257	0.216176	0.240643	0.238237	0.304944	
204000	-65584.796	11.229	0.218186	0.241396	0.225674	0.314744	
205000	-65500.079	11.500	0.212005	0.232611	0.232568	0.322816	
206000	-65239.687	11.499	0.212005	0.232611	0.232568	0.322816	
207000	-65091.023	11.442	0.215346	0.229820	0.234265	0.320569	
208000	-65009.235	11.413	0.215346	0.229820	0.234265	0.320569	
209000	-64833.858	11.354	0.215346	0.229820	0.234265	0.320569	
210000	-64750.933	11.343	0.215346	0.229820	0.234265	0.320569	
211000	-64610.838	11.291	0.215346	0.229820	0.234265	0.320569	
212000	-64308.015	11.264	0.215346	0.229820	0.234265	0.320569	
213000	-64076.192	11.220	0.215346	0.229820	0.234265	0.320569	
214000	-63634.757	11.097	0.228064	0.227211	0.226788	0.317937	
215000	-63545.797	11.203	0.219021	0.230778	0.233697	0.316504	
216000	-63319.569	11.250	0.213374	0.231484	0.229580	0.325563	
217000	-63155.032	11.097	0.215448	0.225418	0.236343	0.322790	
218000	-62761.585	10.938	0.215448	0.225418	0.236343	0.322790	
219000	-62699.976	10.938	0.212990	0.230501	0.235595	0.320913	
220000	-62587.307	10.754	0.214705	0.232867	0.230105	0.322323	
221000	-62351.165	10.705	0.214705	0.232867	0.230105	0.322323	
222000	-62051.953	10.736	0.214705	0.232867	0.230105	0.322323	
223000	-61755.415	10.739	0.212455	0.234589	0.225630	0.327325	
224000	-61697.544	10.709	0.212028	0.230187	0.232122	0.325663	
225000	-61648.961	10.697	0.227124	0.220918	0.229226	0.322732	
226000	-61412.750	10.680	0.220870	0.226915	0.219157	0.333058	
227000	-61355.336	10.797	0.232130	0.230691	0.225271	0.311909	
228000	-61271.478	10.686	0.222477	0.233534	0.229360	0.314630	
229000	-61072.270	10.633	0.222765	0.223915	0.226165	0.327155	
230000	-61025.936	10.576	0.222765	0.223915	0.226165	0.327155	
231000	-60895.649	10.597	0.222765	0.223915	0.226165	0.327155	
232000	-60861.380	10.528	0.221047	0.231823	0.228497	0.318633	
233000	-60830.952	10.461	0.221047	0.231823	0.228497	0.318633	
234000	-60787.966	10.460	0.221047	0.231823	0.228497	0.318633	
235000	-60716.359	10.407	0.226160	0.223796	0.228659	0.321384	
236000	-60681.791	10.446	0.226160	0.223796	0.228659	0.321384	
237000	-60556.080	10.360	0.226160	0.223796	0.228659	0.321384	
238000	-60446.997	10.380	0.226160	0.223796	0.228659	0.321384	
239000	-60281.453	10.393	0.226160	0.223796	0.228659	0.321384	
240000	-60149.802	10.414	0.226160	0.223796	0.228659	0.321384	
241000	-60026.699	10.317	0.226160	0.223796	0.228659	0.321384	
242000	-59902.537	10.277	0.226160	0.223796	0.228659	0.321384	
243000	-59588.020	10.276	0.226160	0.223796	0.228659	0.321384	
244000	-59545.446	10.249	0.226160	0.223796	0.228659	0.321384	
245000	-59527.282	10.173	0.226160	0.223796	0.228659	0.321384	
246000	-59484.949	10.097	0.226160	0.223796	0.228659	0.321384	
247000	-59442.837	10.047	0.226160	0.223796	0.228659	0.321384	
248000	-59407.933	9.932	0.222859	0.227844	0.238266	0.311031	
249000	-59331.852	10.011	0.219419	0.229500	0.237197	0.313883	
250000	-59295.942	10.056	0.219419	0.229500	0.237197	0.313883	
251000	-59261.401	10.015	0.219419	0.229500	0.237197	0.313883	
252000	-59258.781	10.026	0.219419	0.229500	0.237197	0.313883	
253000	-59222.871	9.955	0.219419	0.229500	0.237197	0.313883	
254000	-59224.434	9.984	0.219419	0.229500	0.237197	0.313883	
255000	-59199.591	9.979	0.219419	0.229500	0.237197	0.313883	
256000	-59192.856	10.016	0.218726	0.226119	0.233218	0.321937	
257000	-59182.077	9.970	0.218726	0.226119	0.233218	0.321937	
258000	-59146.016	9.981	0.218726	0.226119	0.233218	0.321937	
259000	-59161.591	9.929	0.218726	0.226119	0.233218	0.321937	
260000	-59124.019	9.919	0.218726	0.226119	0.233218	0.321937	
261000	-59079.196	9.936	0.218726	0.226119	0.233218	0.321937	
262000	-58981.379	9.945	0.218726	0.226119	0.233218	0.321937	
263000	-58964.641	9.946	0.218726	0.226119	0.233218	0.321937	
264000	-58955.469	9.890	0.218726	0.226119	0.233218	0.321937	
265000	-58987.936	9.891	0.218726	0.226119	0.233218	0.321937	
266000	-58979.750	9.972	0.218726	0.226119	0.233218	0.321937	
267000	-58809.812	9.958	0.218726	0.226119	0.233218	0.321937	
268000	-58634.271	9.946	0.218726	0.226119	0.233218	0.321937	
269000	-58438.963	10.218	0.224610	0.244536	0.229793	0.301060	
270000	-58273.370	10.253	0.224244	0.238723	0.235191	0.301842	
271000	-58117.309	10.009	0.224244	0.238723	0.235191	0.301842	
272000	-57919.818	9.939	0.224244	0.238723	0.235191	0.301842	
273000	-57807.637	9.898	0.224244	0.238723	0.235191	0.301842	
274000	-57552.289	9.939	0.224244	0.238723	0.235191	0.301842	
275000	-57257.689	9.891	0.224244	0.238723	0.235191	0.301842	
276000	-57257.995	9.844	0.224244	0.238723	0.235191	0.301842	
277000	-57183.828	9.825	0.225132	0.240606	0.233543	0.300719	
278000	-57097.390	9.762	0.225132	0.240606	0.233543	0.300719	
279000	-57038.626	9.728	0.222338	0.234231	0.242954	0.300477	
280000	-57034.273	9.741	0.222338	0.234231	0.242954	0.300477	
281000	-56955.365	9.795	0.221266	0.242245	0.247463	0.289025	
282000	-56838.136	9.656	0.219593	0.244118	0.235424	0.300865	
283000	-56756.076	9.669	0.219593	0.244118	0.235424	0.300865	
284000	-56433.186	9.653	0.219593	0.244118	0.235424	0.300865	
285000	-56278.945	9.506	0.228426	0.244755	0.244229	0.282590	
286000	-56169.136	9.490	0.235276	0.241626	0.234355	0.288743	
287000	-56123.587	9.432	0.233063	0.246744	0.236718	0.283474	
288000	-56057.149	9.335	0.217509	0.247769	0.239902	0.294819	
289000	-56029.579	9.328	0.217509	0.247769	0.239902	0.294819	
290000	-55986.386	9.299	0.222160	0.248237	0.243959	0.285644	
291000	-55979.061	9.328	0.222160	0.248237	0.243959	0.285644	
292000	-55950.361	9.330	0.222160	0.248237	0.243959	0.285644	
293000	-55932.849	9.323	0.222160	0.248237	0.243959	0.285644	
294000	-55926.709	9.285	0.222160	0.248237	0.243959	0.285644	
295000	-55893.722	9.296	0.224437	0.241531	0.243574	0.290458	
296000	-55885.247	9.254	0.224437	0.241531	0.243574	0.290458	
297000	-55819.797	9.190	0.224437	0.241531	0.243574	0.290458	
298000	-55799.731	9.152	0.224734	0.243136	0.241370	0.290761	
299000	-55801.624	9.135	0.224734	0.243136	0.241370	0.290761	
300000	-55772.379	9.187	0.224734	0.243136	0.241370	0.290761	
301000	-55759.014	9.219	0.224734	0.243136	0.241370	0.290761	
302000	-55732.926	9.217	0.224734	0.243136	0.241370	0.290761	
303000	-55734.544	9.163	0.219853	0.244589	0.241357	0.294201	
304000	-55710.622	9.128	0.219853	0.244589	0.241357	0.294201	
305000	-55644.174	9.103	0.226359	0.248896	0.234872	0.289873	
306000	-55663.218	9.098	0.226629	0.248791	0.234067	0.290513	
307000	-55667.215	9.129	0.226629	0.248791	0.234067	0.290513	
308000	-55663.296	9.067	0.217602	0.240605	0.245866	0.295927	
309000	-55675.123	9.059	0.217602	0.240605	0.245866	0.295927	
310000	-55670.935	9.044	0.225159	0.252361	0.236913	0.285567	
311000	-55645.906	9.033	0.225159	0.252361	0.236913	0.285567	
312000	-55642.915	8.929	0.225159	0.252361	0.236913	0.285567	
313000	-55635.733	8.910	0.225159	0.252361	0.236913	0.285567	
314000	-55627.499	8.873	0.225159	0.252361	0.236913	0.285567	
315000	-55629.202	8.884	0.232666	0.244444	0.237078	0.285812	
316000	-55612.492	8.867	0.223778	0.247829	0.233984	0.294409	
317000	-55603.366	8.896	0.228398	0.246120	0.240431	0.285051	
318000	-55610.918	8.887	0.228398	0.246120	0.240431	0.285051	
319000	-55606.220	8.871	0.226362	0.253080	0.236178	0.284379	
320000	-55533.904	8.832	0.226362	0.253080	0.236178	0.284379	
321000	-55509.632	8.829	0.232984	0.250770	0.237427	0.278818	
322000	-55505.434	8.854	0.226337	0.247113	0.241139	0.285411	
323000	-55489.343	8.857	0.226337	0.247113	0.241139	0.285411	
324000	-55471.436	8.846	0.226363	0.246758	0.243334	0.283545	
325000	-55445.251	8.889	0.226363	0.246758	0.243334	0.283545	
326000	-55423.071	8.873	0.226363	0.246758	0.243334	0.283545	
327000	-55388.334	8.858	0.226363	0.246758	0.243334	0.283545	
328000	-55374.640	8.864	0.226363	0.246758	0.243334	0.283545	
329000	-55357.359	8.917	0.226363	0.246758	0.243334	0.283545	
330000	-55331.235	8.910	0.226363	0.246758	0.243334	0.283545	
331000	-55321.889	8.926	0.226363	0.246758	0.243334	0.283545	
332000	-55296.781	8.839	0.220760	0.253369	0.243602	0.282269	
333000	-55267.034	8.823	0.220760	0.253369	0.243602	0.282269	
334000	-55258.749	8.832	0.220760	0.253369	0.243602	0.282269	
335000	-55254.972	8.835	0.220760	0.253369	0.243602	0.282269	
336000	-55217.376	8.875	0.220760	0.253369	0.243602	0.282269	
337000	-55204.648	8.852	0.220760	0.253369	0.243602	0.282269	
338000	-55182.183	8.821	0.221568	0.246853	0.245134	0.286445	
339000	-55173.460	8.848	0.221568	0.246853	0.245134	0.286445	
340000	-55151.895	8.825	0.221568	0.246853	0.245134	0.286445	
341000	-55147.384	8.801	0.221568	0.246853	0.245134	0.286445	
342000	-55153.132	8.789	0.220722	0.248698	0.245126	0.285454	
343000	-55157.412	8.804	0.220722	0.248698	0.245126	0.285454	
344000	-55159.467	8.764	0.215206	0.244014	0.242998	0.297782	
345000	-55169.421	8.768	0.215206	0.244014	0.242998	0.297782	
346000	-55166.922	8.768	0.219705	0.250196	0.251013	0.279087	
347000	-55166.474	8.731	0.219705	0.250196	0.251013	0.279087	
348000	-55152.886	8.671	0.223172	0.253419	0.238185	0.285224	
349000	-55164.825	8.694	0.226892	0.249139	0.236998	0.286971	
350000	-55165.064	8.697	0.222208	0.256102	0.246016	0.275674	
351000	-55173.774	8.686	0.231340	0.246518	0.245745	0.276397	
352000	-55165.648	8.676	0.231340	0.246518	0.245745	0.276397	
353000	-55152.011	8.701	0.227263	0.243153	0.237793	0.291790	
354000	-55127.996	8.639	0.225041	0.251561	0.238981	0.284416	
355000	-55129.255	8.641	0.225041	0.251561	0.238981	0.284416	
356000	-55127.239	8.628	0.221367	0.247367	0.245339	0.285927	
357000	-55115.176	8.682	0.221367	0.247367	0.245339	0.285927	
358000	-55073.421	8.602	0.221367	0.247367	0.245339	0.285927	
359000	-55090.388	8.640	0.221367	0.247367	0.245339	0.285927	
360000	-55047.553	8.576	0.221367	0.247367	0.245339	0.285927	
361000	-55026.190	8.553	0.221367	0.247367	0.245339	0.285927	
362000	-55006.524	8.571	0.221367	0.247367	0.245339	0.285927	
363000	-54997.188	8.602	0.222909	0.253790	0.243788	0.279513	
364000	-54957.934	8.623	0.222909	0.253790	0.243788	0.279513	
365000	-54981.388	8.599	0.222909	0.253790	0.243788	0.279513	
366000	-54961.720	8.673	0.225600	0.248866	0.241577	0.283957	
367000	-54963.852	8.668	0.225600	0.248866	0.241577	0.283957	
368000	-54972.724	8.706	0.225600	0.248866	0.241577	0.283957	
369000	-54975.966	8.732	0.225600	0.248866	0.241577	0.283957	
370000	-54961.850	8.692	0.223037	0.252926	0.242423	0.281615	
371000	-54973.796	8.689	0.218389	0.254394	0.246560	0.280657	
372000	-54971.910	8.646	0.225950	0.255691	0.239110	0.279248	
373000	-54989.319	8.697	0.225950	0.255691	0.239110	0.279248	
374000	-54996.856	8.742	0.223094	0.248491	0.245863	0.282552	
375000	-54996.365	8.720	0.223094	0.248491	0.245863	0.282552	
376000	-54987.724	8.653	0.223094	0.248491	0.245863	0.282552	
377000	-54973.924	8.649	0.223094	0.248491	0.245863	0.282552	
378000	-55003.362	8.653	0.223094	0.248491	0.245863	0.282552	
379000	-55005.371	8.641	0.223094	0.248491	0.245863	0.282552	
380000	-54992.830	8.683	0.223094	0.248491	0.245863	0.282552	
381000	-55000.655	8.661	0.231690	0.247669	0.243966	0.276676	
382000	-55000.521	8.694	0.227178	0.247240	0.246708	0.278874	
383000	-55005.761	8.676	0.227178	0.247240	0.246708	0.278874	
384000	-54987.504	8.667	0.227178	0.247240	0.246708	0.278874	
385000	-54995.572	8.684	0.218961	0.254309	0.236590	0.290141	
386000	-54999.060	8.779	0.226625	0.250397	0.237494	0.285483	
387000	-54993.750	8.743	0.225334	0.246347	0.242357	0.285963	
388000	-54995.842	8.756	0.224572	0.253062	0.242043	0.280323	
389000	-54988.753	8.762	0.224572	0.253062	0.242043	0.280323	
390000	-54983.596	8.748	0.227538	0.251370	0.237557	0.283535	
391000	-54986.888	8.763	0.227538	0.251370	0.237557	0.283535	
392000	-54996.124	8.720	0.221540	0.256585	0.250508	0.271366	
393000	-55029.193	8.730	0.217637	0.247273	0.247709	0.287380	
394000	-55022.414	8.725	0.217637	0.247273	0.247709	0.287380	
395000	-54982.597	8.731	0.217637	0.247273	0.247709	0.287380	
396000	-54974.117	8.661	0.217637	0.247273	0.247709	0.287380	
397000	-54977.443	8.691	0.222583	0.247357	0.255502	0.274559	
398000	-54960.638	8.693	0.219226	0.260439	0.241730	0.278605	
399000	-54951.619	8.683	0.219226	0.260439	0.241730	0.278605	
400000	-54954.903	8.709	0.219226	0.260439	0.241730	0.278605	
401000	-54966.375	8.743	0.223866	0.251587	0.246242	0.278306	
402000	-54954.881	8.724	0.229877	0.247980	0.237655	0.284488	
403000	-54938.138	8.690	0.221803	0.252567	0.237317	0.288313	
404000	-54932.522	8.683	0.221803	0.252567	0.237317	0.288313	
405000	-54922.521	8.648	0.221803	0.252567	0.237317	0.288313	
406000	-54953.052	8.629	0.221803	0.252567	0.237317	0.288313	
407000	-54963.000	8.648	0.221803	0.252567	0.237317	0.288313	
408000	-54981.654	8.656	0.221803	0.252567	0.237317	0.288313	
409000	-54955.384	8.667	0.221803	0.252567	0.237317	0.288313	
410000	-54939.837	8.667	0.221803	0.252567	0.237317	0.288313	
411000	-54960.931	8.652	0.229793	0.249835	0.238195	0.282177	
412000	-54952.597	8.671	0.229793	0.249835	0.238195	0.282177	
413000	-54967.120	8.719	0.229793	0.249835	0.238195	0.282177	
414000	-54950.892	8.744	0.225288	0.244056	0.242097	0.288559	
415000	-54951.948	8.712	0.225288	0.244056	0.242097	0.288559	
416000	-54949.809	8.684	0.225288	0.244056	0.242097	0.288559	
417000	-54961.274	8.686	0.225288	0.244056	0.242097	0.288559	
418000	-54983.698	8.695	0.225288	0.244056	0.242097	0.288559	
419000	-54969.787	8.668	0.225288	0.244056	0.242097	0.288559	
420000	-54984.844	8.707	0.217357	0.253828	0.236335	0.292479	
421000	-54970.634	8.687	0.218775	0.247962	0.242979	0.290285	
422000	-54959.360	8.705	0.218775	0.247962	0.242979	0.290285	
423000	-54941.988	8.645	0.225665	0.244278	0.242068	0.287989	
424000	-54958.025	8.654	0.220339	0.255701	0.241936	0.282024	
425000	-54953.884	8.675	0.220339	0.255701	0.241936	0.282024	
426000	-54954.041	8.714	0.223748	0.251655	0.239496	0.285101	
427000	-54971.181	8.829	0.223748	0.251655	0.239496	0.285101	
428000	-54961.543	8.743	0.223748	0.251655	0.239496	0.285101	
429000	-54957.689	8.738	0.223748	0.251655	0.239496	0.285101	
430000	-54955.806	8.716	0.223748	0.251655	0.239496	0.285101	
431000	-54948.676	8.688	0.223748	0.251655	0.239496	0.285101	
432000	-54945.464	8.730	0.223748	0.251655	0.239496	0.285101	
433000	-54946.780	8.713	0.225088	0.244584	0.243190	0.287138	
434000	-54953.107	8.731	0.225088	0.244584	0.243190	0.287138	
435000	-54971.075	8.711	0.225088	0.244584	0.243190	0.287138	
436000	-54969.009	8.644	0.225088	0.244584	0.243190	0.287138	
437000	-54966.325	8.697	0.224729	0.246666	0.241818	0.286788	
438000	-54963.164	8.685	0.224729	0.246666	0.241818	0.286788	
439000	-54961.305	8.655	0.224729	0.246666	0.241818	0.286788	
440000	-54961.976	8.707	0.224729	0.246666	0.241818	0.286788	
441000	-54954.891	8.727	0.224729	0.246666	0.241818	0.286788	
442000	-54942.912	8.718	0.224729	0.246666	0.241818	0.286788	
443000	-54934.654	8.754	0.224729	0.246666	0.241818	0.286788	
444000	-54920.256	8.702	0.224729	0.246666	0.241818	0.286788	
445000	-54930.980	8.695	0.224729	0.246666	0.241818	0.286788	
446000	-54931.862	8.646	0.224729	0.246666	0.241818	0.286788	
447000	-54949.734	8.598	0.225412	0.250447	0.245062	0.279078	
448000	-54950.046	8.661	0.225412	0.250447	0.245062	0.279078	
449000	-54951.289	8.606	0.221333	0.250880	0.240874	0.286914	
450000	-54947.155	8.611	0.221333	0.250880	0.240874	0.286914	
451000	-54941.230	8.580	0.221333	0.250880	0.240874	0.286914	
452000	-54950.895	8.588	0.221333	0.250880	0.240874	0.286914	
453000	-54953.708	8.671	0.221333	0.250880	0.240874	0.286914	
454000	-54948.492	8.624	0.221333	0.250880	0.240874	0.286914	
455000	-54962.661	8.633	0.221333	0.250880	0.240874	0.286914	
456000	-54980.007	8.642	0.221333	0.250880	0.240874	0.286914	
457000	-54965.776	8.590	0.221333	0.250880	0.240874	0.286914	
458000	-54964.083	8.576	0.221333	0.250880	0.240874	0.286914	
459000	-54969.486	8.568	0.221333	0.250880	0.240874	0.286914	
460000	-54964.100	8.562	0.222552	0.249026	0.240062	0.288359	
461000	-54974.922	8.588	0.222552	0.249026	0.240062	0.288359	
462000	-54969.923	8.632	0.222552	0.249026	0.240062	0.288359	
463000	-54947.681	8.641	0.224150	0.252670	0.242101	0.281079	
464000	-54951.156	8.605	0.224150	0.252670	0.242101	0.281079	
465000	-54952.762	8.517	0.224150	0.252670	0.242101	0.281079	
466000	-54943.719	8.521	0.213471	0.253923	0.251176	0.281430	
467000	-54945.056	8.519	0.222147	0.257259	0.233977	0.286617	
468000	-54920.652	8.490	0.226944	0.253130	0.240992	0.278934	
469000	-54881.624	8.491	0.226944	0.253130	0.240992	0.278934	
470000	-54884.438	8.498	0.226944	0.253130	0.240992	0.278934	
471000	-54891.942	8.540	0.226944	0.253130	0.240992	0.278934	
472000	-54897.542	8.549	0.226944	0.253130	0.240992	0.278934	
473000	-54865.212	8.505	0.226944	0.253130	0.240992	0.278934	
474000	-54866.976	8.518	0.226944	0.253130	0.240992	0.278934	
475000	-54868.146	8.482	0.226944	0.253130	0.240992	0.278934	
476000	-54880.543	8.452	0.229037	0.256261	0.242169	0.272534	
477000	-54879.163	8.461	0.223219	0.245802	0.249176	0.281803	
478000	-54889.862	8.477	0.221539	0.244980	0.241758	0.291722	
479000	-54881.239	8.511	0.221539	0.244980	0.241758	0.291722	
480000	-54874.100	8.511	0.217315	0.243884	0.246112	0.292690	
481000	-54860.785	8.582	0.217315	0.243884	0.246112	0.292690	
482000	-54877.136	8.592	0.217315	0.243884	0.246112	0.292690	
483000	-54875.633	8.596	0.217315	0.243884	0.246112	0.292690	
484000	-54871.984	8.591	0.217666	0.244421	0.241311	0.296603	
485000	-54862.098	8.543	0.217666	0.244421	0.241311	0.296603	
486000	-54853.812	8.436	0.217666	0.244421	0.241311	0.296603	
487000	-54860.452	8.465	0.217666	0.244421	0.241311	0.296603	
488000	-54865.749	8.506	0.217666	0.244421	0.241311	0.296603	
489000	-54865.965	8.429	0.214870	0.256240	0.243329	0.285560	
490000	-54855.532	8.371	0.229197	0.249282	0.238677	0.282844	
491000	-54866.694	8.405	0.229197	0.249282	0.238677	0.282844	
492000	-54849.650	8.423	0.229197	0.249282	0.238677	0.282844	
493000	-54850.463	8.429	0.225960	0.243405	0.244521	0.286114	
494000	-54862.747	8.431	0.225960	0.243405	0.244521	0.286114	
495000	-54847.505	8.493	0.228266	0.246849	0.239827	0.285058	
496000	-54880.419	8.511	0.231133	0.241441	0.242603	0.284823	
497000	-54891.491	8.500	0.217018	0.255698	0.233052	0.294232	
498000	-54874.384	8.495	0.220222	0.246342	0.253748	0.279688	
499000	-54853.234	8.470	0.232990	0.243308	0.244100	0.279603	
500000	-54863.738	8.450	0.224140	0.240221	0.248772	0.286867	
501000	-54873.681	8.519	0.217597	0.258477	0.250400	0.273526	
502000	-54854.086	8.527	0.227520	0.254632	0.236138	0.281710	
503000	-54846.222	8.572	0.221893	0.248273	0.241089	0.288745	
504000	-54855.850	8.582	0.228802	0.250495	0.238812	0.281892	
505000	-54842.056	8.575	0.216851	0.249596	0.244878	0.288675	
506000	-54851.883	8.567	0.219522	0.247532	0.244571	0.288375	
507000	-54852.529	8.597	0.219522	0.247532	0.244571	0.288375	
508000	-54850.204	8.626	0.218917	0.249457	0.240617	0.291009	
509000	-54848.131	8.640	0.218917	0.249457	0.240617	0.291009	
510000	-54834.471	8.598	0.218917	0.249457	0.240617	0.291009	
511000	-54855.656	8.580	0.218917	0.249457	0.240617	0.291009	
512000	-54836.475	8.634	0.224552	0.255084	0.242036	0.278328	
513000	-54849.974	8.649	0.228441	0.252138	0.239740	0.279681	
514000	-54855.255	8.646	0.228441	0.252138	0.239740	0.279681	
515000	-54854.031	8.672	0.228441	0.252138	0.239740	0.279681	
516000	-54840.461	8.701	0.225800	0.251961	0.243698	0.278541	
517000	-54840.642	8.670	0.225800	0.251961	0.243698	0.278541	
518000	-54863.012	8.670	0.225800	0.251961	0.243698	0.278541	
519000	-54865.880	8.639	0.226325	0.249166	0.237298	0.287211	
520000	-54842.802	8.657	0.226325	0.249166	0.237298	0.287211	
521000	-54859.194	8.685	0.226325	0.249166	0.237298	0.287211	
522000	-54854.761	8.655	0.226034	0.249614	0.235393	0.288958	
523000	-54836.370	8.580	0.218284	0.248787	0.244255	0.288674	
524000	-54833.392	8.584	0.218284	0.248787	0.244255	0.288674	
525000	-54868.560	8.588	0.222776	0.250482	0.245920	0.280822	
526000	-54853.848	8.601	0.220420	0.245588	0.244088	0.289903	
527000	-54852.494	8.615	0.220420	0.245588	0.244088	0.289903	
528000	-54841.419	8.544	0.220420	0.245588	0.244088	0.289903	
529000	-54842.998	8.542	0.222834	0.249193	0.245868	0.282106	
530000	-54845.315	8.593	0.222834	0.249193	0.245868	0.282106	
531000	-54851.233	8.598	0.222834	0.249193	0.245868	0.282106	
532000	-54823.202	8.602	0.219878	0.245249	0.243988	0.290884	
533000	-54849.593	8.682	0.217048	0.245332	0.241241	0.296379	
534000	-54853.410	8.726	0.217048	0.245332	0.241241	0.296379	
535000	-54840.355	8.709	0.226482	0.250582	0.235092	0.287845	
536000	-54844.786	8.711	0.226482	0.250582	0.235092	0.287845	
537000	-54854.689	8.724	0.218707	0.247090	0.244786	0.289417	
538000	-54836.008	8.693	0.221699	0.242681	0.242359	0.293261	
539000	-54820.878	8.684	0.221699	0.242681	0.242359	0.293261	
540000	-54824.013	8.719	0.221699	0.242681	0.242359	0.293261	
541000	-54831.839	8.706	0.221699	0.242681	0.242359	0.293261	
542000	-54827.074	8.698	0.222782	0.246328	0.237299	0.293591	
543000	-54823.081	8.661	0.227981	0.246840	0.244439	0.280741	
544000	-54838.765	8.689	0.227981	0.246840	0.244439	0.280741	
545000	-54855.750	8.730	0.227981	0.246840	0.244439	0.280741	
546000	-54860.271	8.690	0.224448	0.246788	0.235450	0.293314	
547000	-54815.807	9.717	0.223821	0.222558	0.225170	0.328450	
548000	-54775.992	9.719	0.223821	0.222558	0.225170	0.328450	
549000	-54727.585	9.647	0.223821	0.222558	0.225170	0.328450	
550000	-54695.728	9.520	0.223821	0.222558	0.225170	0.328450	
551000	-54651.218	9.630	0.223821	0.222558	0.225170	0.328450	
552000	-54597.415	9.538	0.219937	0.227228	0.225816	0.327019	
553000	-54574.877	9.521	0.219937	0.227228	0.225816	0.327019	
554000	-54545.902	9.424	0.217346	0.232268	0.224638	0.325749	
555000	-54527.084	9.410	0.227810	0.224016	0.231311	0.316864	
556000	-54482.693	9.370	0.216326	0.236226	0.226589	0.320859	
557000	-54428.930	9.373	0.223604	0.224749	0.227386	0.324261	
558000	-54321.692	9.301	0.223604	0.224749	0.227386	0.324261	
559000	-54272.634	9.267	0.223604	0.224749	0.227386	0.324261	
560000	-54264.784	9.284	0.223008	0.237320	0.230220	0.309451	
561000	-54247.548	9.240	0.223008	0.237320	0.230220	0.309451	
562000	-54207.711	9.244	0.223008	0.237320	0.230220	0.309451	
563000	-54086.831	9.236	0.216589	0.229054	0.232029	0.322327	
564000	-53920.110	9.281	0.216589	0.229054	0.232029	0.322327	
565000	-53701.264	9.243	0.218030	0.225251	0.225768	0.330951	
566000	-53428.664	9.216	0.213251	0.224874	0.225694	0.336181	
567000	-53090.660	9.230	0.221384	0.225600	0.227679	0.325336	
568000	-52855.108	9.146	0.224033	0.227046	0.219589	0.329332	
569000	-52829.506	9.152	0.224033	0.227046	0.219589	0.329332	
570000	-52739.510	8.971	0.219967	0.239129	0.229645	0.311259	
571000	-52667.595	8.947	0.219340	0.225901	0.223575	0.331183	
572000	-52569.382	8.919	0.223528	0.230950	0.224699	0.320822	
573000	-52457.805	8.886	0.222393	0.230361	0.227762	0.319484	
574000	-52293.590	8.859	0.226529	0.232851	0.229020	0.311600	
575000	-52258.090	8.887	0.219415	0.233462	0.225972	0.321150	
576000	-52247.597	8.912	0.219415	0.233462	0.225972	0.321150	
577000	-52172.775	8.837	0.219415	0.233462	0.225972	0.321150	
578000	-52128.559	8.773	0.219415	0.233462	0.225972	0.321150	
579000	-52108.551	8.732	0.223508	0.228065	0.223915	0.324512	
580000	-52036.764	8.741	0.223508	0.228065	0.223915	0.324512	
581000	-51973.379	8.773	0.220459	0.233603	0.226534	0.319404	
582000	-51840.003	8.773	0.220459	0.233603	0.226534	0.319404	
583000	-51808.446	8.695	0.220459	0.233603	0.226534	0.319404	
584000	-51789.916	8.604	0.220177	0.223447	0.225470	0.330907	
585000	-51710.138	8.505	0.227815	0.227621	0.221307	0.323256	
586000	-51664.757	8.446	0.227004	0.231291	0.225636	0.316070	
587000	-51651.168	8.496	0.222364	0.229020	0.229979	0.318637	
588000	-51616.932	8.435	0.226761	0.224455	0.226697	0.322087	
589000	-51616.432	8.417	0.228685	0.223158	0.228821	0.319336	
590000	-51604.562	8.497	0.224741	0.234111	0.230434	0.310714	
591000	-51601.483	8.478	0.225057	0.236265	0.227471	0.311207	
592000	-51591.235	8.435	0.223152	0.234242	0.231338	0.311268	
593000	-51572.000	8.509	0.219574	0.229354	0.221767	0.329305	
594000	-51534.255	8.545	0.233214	0.222382	0.231626	0.312778	
595000	-51507.192	8.570	0.231046	0.227201	0.219961	0.321791	
596000	-51519.154	8.499	0.231046	0.227201	0.219961	0.321791	
597000	-51511.648	8.443	0.231046	0.227201	0.219961	0.321791	
598000	-51474.034	8.374	0.229988	0.229215	0.221999	0.318798	
599000	-51466.651	8.481	0.229988	0.229215	0.221999	0.318798	
600000	-51463.861	8.483	0.229988	0.229215	0.221999	0.318798	
601000	-51498.665	8.478	0.224716	0.225723	0.240811	0.308749	
602000	-51493.506	8.489	0.217661	0.241604	0.225994	0.314742	
603000	-51478.886	8.430	0.223708	0.231542	0.221680	0.323070	
604000	-51500.944	8.459	0.223708	0.231542	0.221680	0.323070	
605000	-51487.421	8.409	0.223058	0.225787	0.234059	0.317096	
606000	-51479.608	8.416	0.223603	0.238678	0.233585	0.304135	
607000	-51456.291	8.414	0.223603	0.238678	0.233585	0.304135	
608000	-51465.940	8.436	0.229280	0.225839	0.227453	0.317428	
609000	-51475.587	8.394	0.225212	0.239604	0.221198	0.313987	
610000	-51458.627	8.357	0.228544	0.223466	0.232361	0.315630	
611000	-51449.900	8.373	0.228544	0.223466	0.232361	0.315630	
612000	-51428.300	8.370	0.227782	0.232174	0.225997	0.314047	
613000	-51429.485	8.324	0.225065	0.233800	0.228953	0.312182	
614000	-51413.058	8.307	0.225065	0.233800	0.228953	0.312182	
615000	-51410.266	8.226	0.225687	0.230082	0.235711	0.308519	
616000	-51396.370	8.204	0.225687	0.230082	0.235711	0.308519	
617000	-51363.735	8.273	0.225687	0.230082	0.235711	0.308519	
618000	-51383.343	8.278	0.218852	0.231996	0.234788	0.314364	
619000	-51398.121	8.332	0.218852	0.231996	0.234788	0.314364	
620000	-51416.604	8.346	0.218852	0.231996	0.234788	0.314364	
621000	-51408.795	8.321	0.214034	0.233705	0.231309	0.320952	
622000	-51414.828	8.347	0.230577	0.237122	0.230772	0.301530	
623000	-51402.090	8.313	0.228039	0.225351	0.221989	0.324621	
624000	-51378.095	8.280	0.226137	0.227023	0.225429	0.321410	
625000	-51385.489	8.313	0.218457	0.233487	0.234021	0.314035	
626000	-51387.150	8.249	0.218457	0.233487	0.234021	0.314035	
627000	-51386.765	8.234	0.218457	0.233487	0.234021	0.314035	
628000	-51408.612	8.249	0.218457	0.233487	0.234021	0.314035	
629000	-51388.480	8.280	0.222184	0.231798	0.226910	0.319108	
630000	-51388.435	8.257	0.220717	0.227191	0.233483	0.318609	
631000	-51391.729	8.258	0.224162	0.227888	0.234657	0.313294	
632000	-51398.139	8.284	0.221298	0.236715	0.232858	0.309128	
633000	-51395.978	8.342	0.221298	0.236715	0.232858	0.309128	
634000	-51364.406	8.322	0.221298	0.236715	0.232858	0.309128	
635000	-51368.726	8.301	0.232628	0.231138	0.229782	0.306452	
636000	-51343.491	8.303	0.229416	0.229344	0.240767	0.300473	
637000	-51332.127	8.315	0.214648	0.238374	0.240141	0.306838	
638000	-51324.628	8.312	0.220321	0.235987	0.235387	0.308305	
639000	-51320.290	8.319	0.220321	0.235987	0.235387	0.308305	
640000	-51326.347	8.359	0.231328	0.228646	0.232875	0.307151	
641000	-51326.873	8.308	0.231328	0.228646	0.232875	0.307151	
642000	-51332.513	8.313	0.223537	0.231624	0.226566	0.318273	
643000	-51319.680	8.311	0.223117	0.231614	0.232151	0.313119	
644000	-51306.554	8.234	0.223117	0.231614	0.232151	0.313119	
645000	-51304.747	8.248	0.223117	0.231614	0.232151	0.313119	
646000	-51307.577	8.244	0.223117	0.231614	0.232151	0.313119	
647000	-51310.231	8.280	0.223117	0.231614	0.232151	0.313119	
648000	-51327.172	8.342	0.223117	0.231614	0.232151	0.313119	
649000	-51321.816	8.332	0.223117	0.231614	0.232151	0.313119	
650000	-51316.260	8.314	0.223001	0.233316	0.238680	0.305003	
651000	-51314.426	8.314	0.230625	0.231550	0.225638	0.312188	
652000	-51325.831	8.300	0.230625	0.231550	0.225638	0.312188	
653000	-51230.331	8.292	0.221634	0.228065	0.232634	0.317666	
654000	-51235.324	8.293	0.221634	0.228065	0.232634	0.317666	
655000	-51234.530	8.306	0.221634	0.228065	0.232634	0.317666	
656000	-51195.176	8.311	0.226711	0.227689	0.233113	0.312487	
657000	-51177.320	8.307	0.226711	0.227689	0.233113	0.312487	
658000	-51119.522	8.300	0.226711	0.227689	0.233113	0.312487	
659000	-50907.380	8.347	0.225463	0.233345	0.231615	0.309577	
660000	-50638.471	8.370	0.227681	0.231251	0.231866	0.309202	
661000	-50565.471	8.308	0.216325	0.232703	0.235718	0.315254	
662000	-50471.315	8.221	0.216325	0.232703	0.235718	0.315254	
663000	-50433.837	8.228	0.216325	0.232703	0.235718	0.315254	
664000	-50418.983	8.243	0.216325	0.232703	0.235718	0.315254	
665000	-50417.977	8.234	0.223376	0.226972	0.234843	0.314809	
666000	-50404.119	8.236	0.222504	0.233943	0.237495	0.306058	
667000	-50412.140	8.220	0.222504	0.233943	0.237495	0.306058	
668000	-50403.291	8.240	0.222504	0.233943	0.237495	0.306058	
669000	-50385.114	8.315	0.214600	0.233967	0.237571	0.313862	
670000	-50390.044	8.256	0.214600	0.233967	0.237571	0.313862	
671000	-50393.949	8.280	0.228461	0.233577	0.227670	0.310292	
672000	-50398.978	8.277	0.228461	0.233577	0.227670	0.310292	
673000	-50367.545	8.192	0.228461	0.233577	0.227670	0.310292	
674000	-50365.944	8.157	0.228461	0.233577	0.227670	0.310292	
675000	-50360.958	8.201	0.226766	0.234334	0.235259	0.303641	
676000	-50368.435	8.182	0.219031	0.226953	0.240373	0.313643	
677000	-50374.830	8.257	0.219031	0.226953	0.240373	0.313643	
678000	-50367.539	8.238	0.219031	0.226953	0.240373	0.313643	
679000	-50345.135	8.219	0.227497	0.227311	0.230861	0.314330	
680000	-50355.970	8.250	0.221618	0.235189	0.229064	0.314129	
681000	-50346.537	8.255	0.217518	0.233140	0.234928	0.314414	
682000	-50343.602	8.177	0.217518	0.233140	0.234928	0.314414	
683000	-50351.838	8.192	0.225834	0.232737	0.230404	0.311025	
684000	-50327.256	8.187	0.225834	0.232737	0.230404	0.311025	
685000	-50304.193	8.180	0.225834	0.232737	0.230404	0.311025	
686000	-50303.160	8.192	0.225834	0.232737	0.230404	0.311025	
687000	-50278.222	8.241	0.225834	0.232737	0.230404	0.311025	
688000	-50283.559	8.218	0.225834	0.232737	0.230404	0.311025	
689000	-50279.895	8.204	0.225834	0.232737	0.230404	0.311025	
690000	-50253.763	8.097	0.224475	0.240837	0.228122	0.306566	
691000	-50256.445	8.138	0.219418	0.225992	0.228809	0.325782	
692000	-50212.068	8.056	0.221258	0.233714	0.238673	0.306355	
693000	-50184.973	8.081	0.225004	0.225495	0.235131	0.314370	
694000	-50152.062	8.133	0.215879	0.235717	0.227659	0.320745	
695000	-50142.235	8.075	0.215879	0.235717	0.227659	0.320745	
696000	-50121.141	8.070	0.215879	0.235717	0.227659	0.320745	
697000	-50111.056	8.050	0.215879	0.235717	0.227659	0.320745	
698000	-50107.447	8.080	0.217667	0.226549	0.236177	0.319608	
699000	-50076.388	8.081	0.218563	0.227866	0.234296	0.319275	
700000	-50060.192	8.051	0.225084	0.230134	0.230292	0.314490	
701000	-50045.801	8.001	0.225084	0.230134	0.230292	0.314490	
702000	-50030.449	7.995	0.225084	0.230134	0.230292	0.314490	
703000	-50012.538	8.006	0.225084	0.230134	0.230292	0.314490	
704000	-50012.473	8.044	0.225084	0.230134	0.230292	0.314490	
705000	-49948.061	8.035	0.222487	0.233603	0.229317	0.314593	
706000	-49880.142	8.067	0.222487	0.233603	0.229317	0.314593	
707000	-49795.943	8.081	0.222487	0.233603	0.229317	0.314593	
708000	-49778.654	8.045	0.226544	0.236751	0.229388	0.307317	
709000	-49802.940	8.048	0.227756	0.237531	0.229699	0.305014	
710000	-49797.159	8.047	0.227756	0.237531	0.229699	0.305014	
711000	-49791.316	8.051	0.227133	0.227318	0.227884	0.317665	
712000	-49795.552	8.067	0.231349	0.228286	0.221879	0.318485	
713000	-49787.040	8.026	0.231349	0.228286	0.221879	0.318485	
714000	-49775.220	8.023	0.221349	0.240362	0.229705	0.308584	
715000	-49798.204	8.059	0.217768	0.231045	0.234418	0.316769	
716000	-49780.268	8.021	0.219723	0.239644	0.234154	0.306479	
717000	-49721.862	8.219	0.218384	0.235864	0.234807	0.310945	
718000	-49616.930	8.148	0.220930	0.240292	0.228452	0.310326	
719000	-49598.668	8.128	0.224222	0.237646	0.236851	0.301281	
720000	-49559.686	8.118	0.221111	0.243336	0.225413	0.310141	
721000	-49551.356	8.082	0.221111	0.243336	0.225413	0.310141	
722000	-49540.863	8.106	0.213960	0.245150	0.234437	0.306454	
723000	-49460.815	8.049	0.227974	0.241704	0.225376	0.304946	
724000	-49451.638	8.125	0.227974	0.241704	0.225376	0.304946	
725000	-49389.241	8.077	0.219162	0.236865	0.235746	0.308228	
726000	-49376.694	8.122	0.220374	0.238734	0.229342	0.311551	
727000	-49351.679	8.057	0.230693	0.233705	0.228441	0.307161	
728000	-49335.922	8.035	0.217522	0.234225	0.240969	0.307285	
729000	-49316.660	7.985	0.217202	0.248697	0.227190	0.306911	
730000	-49300.924	7.942	0.222435	0.234466	0.232015	0.311084	
731000	-49302.330	7.957	0.223086	0.234078	0.237819	0.305017	
732000	-49288.775	8.024	0.223086	0.234078	0.237819	0.305017	
733000	-49256.232	8.016	0.219736	0.238461	0.231168	0.310634	
734000	-49251.508	7.965	0.225827	0.232749	0.226111	0.315313	
735000	-49230.102	7.943	0.232987	0.236820	0.231014	0.299179	
736000	-49220.112	7.954	0.232987	0.236820	0.231014	0.299179	
737000	-49209.596	7.916	0.222685	0.244209	0.228463	0.304643	
738000	-49181.330	7.887	0.232026	0.234428	0.227914	0.305632	
739000	-49178.434	7.914	0.229955	0.236682	0.236102	0.297262	
740000	-49169.985	7.915	0.229955	0.236682	0.236102	0.297262	
741000	-49150.724	7.870	0.229955	0.236682	0.236102	0.297262	
742000	-49165.177	7.862	0.225876	0.235563	0.233404	0.305157	
743000	-49167.800	7.863	0.225876	0.235563	0.233404	0.305157	
744000	-49155.169	7.870	0.225876	0.235563	0.233404	0.305157	
745000	-49121.390	7.839	0.225876	0.235563	0.233404	0.305157	
746000	-49118.622	7.836	0.229332	0.235336	0.231456	0.303876	
747000	-49124.200	7.890	0.229332	0.235336	0.231456	0.303876	
748000	-49151.743	7.880	0.225269	0.243865	0.234387	0.296479	
749000	-49130.797	7.865	0.214328	0.237503	0.231661	0.316508	
750000	-49148.927	7.896	0.214960	0.233895	0.240462	0.310683	
751000	-49120.919	7.846	0.220948	0.230859	0.231818	0.316374	
752000	-49104.880	7.848	0.220434	0.231879	0.232835	0.314852	
753000	-49115.901	7.833	0.229621	0.234053	0.229936	0.306390	
754000	-48987.152	7.851	0.223210	0.229896	0.238605	0.308288	
755000	-48941.784	7.851	0.223865	0.234424	0.230571	0.311140	
756000	-48917.484	7.907	0.223865	0.234424	0.230571	0.311140	
757000	-48914.426	7.896	0.223865	0.234424	0.230571	0.311140	
758000	-48835.768	7.862	0.223865	0.234424	0.230571	0.311140	
759000	-48819.273	7.870	0.223865	0.234424	0.230571	0.311140	
760000	-48820.312	7.861	0.223865	0.234424	0.230571	0.311140	
761000	-48785.434	7.793	0.223865	0.234424	0.230571	0.311140	
762000	-48757.906	7.782	0.223865	0.234424	0.230571	0.311140	
763000	-48771.636	7.728	0.223865	0.234424	0.230571	0.311140	
764000	-48767.680	7.662	0.223865	0.234424	0.230571	0.311140	
765000	-48746.394	7.683	0.223865	0.234424	0.230571	0.311140	
766000	-48775.109	7.724	0.223865	0.234424	0.230571	0.311140	
767000	-48753.769	7.730	0.223865	0.234424	0.230571	0.311140	
768000	-48716.435	7.718	0.217640	0.245718	0.236126	0.300516	
769000	-48613.600	7.698	0.225035	0.242852	0.234108	0.298004	
770000	-48609.440	7.695	0.223502	0.233039	0.231294	0.312164	
771000	-48485.531	7.769	0.223502	0.233039	0.231294	0.312164	
772000	-48468.275	7.760	0.223502	0.233039	0.231294	0.312164	
773000	-48471.665	7.740	0.235306	0.233249	0.234138	0.297307	
774000	-48442.240	7.752	0.226109	0.237041	0.231673	0.305177	
775000	-48424.436	7.754	0.226109	0.237041	0.231673	0.305177	
776000	-48418.534	7.772	0.226109	0.237041	0.231673	0.305177	
777000	-48400.517	7.770	0.227735	0.233327	0.232906	0.306032	
778000	-48415.454	7.725	0.232102	0.230053	0.222373	0.315472	
779000	-48414.786	7.781	0.232102	0.230053	0.222373	0.315472	
780000	-48408.088	7.798	0.227851	0.224957	0.235036	0.312156	
781000	-48394.931	7.859	0.224500	0.231039	0.229591	0.314871	
782000	-48396.965	7.885	0.227583	0.234702	0.243584	0.294131	
783000	-48389.726	7.924	0.212875	0.236595	0.242222	0.308309	
784000	-48382.159	7.909	0.224537	0.234260	0.235039	0.306165	
785000	-48379.841	7.910	0.224537	0.234260	0.235039	0.306165	
786000	-48359.609	7.900	0.224537	0.234260	0.235039	0.306165	
787000	-48345.443	7.848	0.224537	0.234260	0.235039	0.306165	
788000	-48345.609	7.812	0.224537	0.234260	0.235039	0.306165	
789000	-48328.183	7.754	0.224537	0.234260	0.235039	0.306165	
790000	-48269.770	7.858	0.224537	0.234260	0.235039	0.306165	
791000	-48256.121	7.917	0.224537	0.234260	0.235039	0.306165	
792000	-48221.041	7.880	0.224537	0.234260	0.235039	0.306165	
793000	-48213.913	7.855	0.226647	0.229560	0.234937	0.308855	
794000	-48207.704	7.786	0.226647	0.229560	0.234937	0.308855	
795000	-48158.947	7.757	0.226647	0.229560	0.234937	0.308855	
796000	-48150.681	7.798	0.226647	0.229560	0.234937	0.308855	
797000	-48136.123	7.702	0.226647	0.229560	0.234937	0.308855	
798000	-48140.402	7.710	0.226647	0.229560	0.234937	0.308855	
799000	-48138.924	7.728	0.232005	0.233416	0.231657	0.302923	
800000	-48137.424	7.763	0.229386	0.235713	0.236864	0.298037	
801000	-48178.173	7.691	0.226679	0.239356	0.227044	0.306921	
802000	-48169.241	7.679	0.226679	0.239356	0.227044	0.306921	
803000	-48153.668	7.687	0.226679	0.239356	0.227044	0.306921	
804000	-48146.414	7.626	0.226679	0.239356	0.227044	0.306921	
805000	-48154.450	7.637	0.226679	0.239356	0.227044	0.306921	
806000	-48134.051	7.630	0.226679	0.239356	0.227044	0.306921	
807000	-48130.705	7.598	0.226679	0.239356	0.227044	0.306921	
808000	-48129.366	7.610	0.223780	0.241683	0.231198	0.303339	
809000	-48131.854	7.631	0.223780	0.241683	0.231198	0.303339	
810000	-48140.208	7.612	0.227486	0.236433	0.233387	0.302694	
811000	-48120.955	7.588	0.227486	0.236433	0.233387	0.302694	
812000	-48139.621	7.589	0.227486	0.236433	0.233387	0.302694	
813000	-48135.547	7.598	0.227486	0.236433	0.233387	0.302694	
814000	-48144.913	7.666	0.227486	0.236433	0.233387	0.302694	
815000	-48150.856	7.632	0.227486	0.236433	0.233387	0.302694	
816000	-48162.165	7.691	0.227486	0.236433	0.233387	0.302694	
817000	-48147.023	7.610	0.227486	0.236433	0.233387	0.302694	
818000	-48147.819	7.671	0.227486	0.236433	0.233387	0.302694	
819000	-48150.127	7.682	0.227486	0.236433	0.233387	0.302694	
820000	-48135.756	7.589	0.227486	0.236433	0.233387	0.302694	
821000	-48123.210	7.601	0.227486	0.236433	0.233387	0.302694	
822000	-48122.690	7.580	0.227486	0.236433	0.233387	0.302694	
823000	-48128.724	7.602	0.227486	0.236433	0.233387	0.302694	
824000	-48131.112	7.612	0.227486	0.236433	0.233387	0.302694	
825000	-48133.408	7.572	0.227486	0.236433	0.233387	0.302694	
826000	-48145.994	7.605	0.227486	0.236433	0.233387	0.302694	
827000	-48162.564	7.655	0.229917	0.239569	0.227731	0.302783	
828000	-48157.534	7.702	0.229917	0.239569	0.227731	0.302783	
829000	-48156.190	7.677	0.232861	0.240383	0.231169	0.295588	
830000	-48166.474	7.670	0.224403	0.238959	0.227871	0.308768	
831000	-48176.137	7.710	0.224403	0.238959	0.227871	0.308768	
832000	-48165.526	7.734	0.231840	0.236014	0.232716	0.299430	
833000	-48144.144	7.751	0.231840	0.236014	0.232716	0.299430	
834000	-48155.771	7.766	0.233316	0.235597	0.231159	0.299928	
835000	-48152.082	7.694	0.224424	0.238071	0.233230	0.304275	
836000	-48147.049	7.664	0.223153	0.237613	0.230078	0.309156	
837000	-48146.916	7.675	0.222417	0.238699	0.237527	0.301358	
838000	-48142.826	7.621	0.222417	0.238699	0.237527	0.301358	
839000	-48139.296	7.625	0.226562	0.240008	0.224350	0.309080	
840000	-48137.030	7.624	0.230107	0.236472	0.227542	0.305879	
841000	-48133.805	7.569	0.227975	0.239149	0.233912	0.298963	
842000	-48118.156	7.593	0.227975	0.239149	0.233912	0.298963	
843000	-48095.007	7.578	0.227975	0.239149	0.233912	0.298963	
844000	-48098.550	7.556	0.224984	0.237244	0.236669	0.301103	
845000	-48055.274	7.548	0.222100	0.235039	0.237264	0.305597	
846000	-48049.070	7.560	0.222100	0.235039	0.237264	0.305597	
847000	-48038.037	7.657	0.228239	0.238052	0.225884	0.307825	
848000	-48026.139	7.667	0.220019	0.244638	0.230618	0.304724	
849000	-48013.520	7.641	0.225405	0.243389	0.229433	0.301772	
850000	-47991.003	7.648	0.231018	0.234194	0.227500	0.307289	
851000	-47997.699	7.689	0.231018	0.234194	0.227500	0.307289	
852000	-47984.151	7.701	0.231018	0.234194	0.227500	0.307289	
853000	-47973.168	7.630	0.231018	0.234194	0.227500	0.307289	
854000	-47980.089	7.604	0.229678	0.233229	0.234398	0.302695	
855000	-47989.258	7.610	0.229678	0.233229	0.234398	0.302695	
856000	-47974.245	7.606	0.229678	0.233229	0.234398	0.302695	
857000	-47978.724	7.587	0.224085	0.238191	0.229535	0.308189	
858000	-47970.878	7.571	0.224085	0.238191	0.229535	0.308189	
859000	-47954.396	7.582	0.224085	0.238191	0.229535	0.308189	
860000	-47950.805	7.635	0.224085	0.238191	0.229535	0.308189	
861000	-47950.795	7.580	0.226429	0.230257	0.231500	0.311814	
862000	-47933.047	7.555	0.226429	0.230257	0.231500	0.311814	
863000	-47943.543	7.593	0.226429	0.230257	0.231500	0.311814	
864000	-47947.541	7.584	0.226429	0.230257	0.231500	0.311814	
865000	-47955.687	7.583	0.223812	0.237604	0.232308	0.306276	
866000	-47968.141	7.602	0.223812	0.237604	0.232308	0.306276	
867000	-47982.004	7.586	0.223812	0.237604	0.232308	0.306276	
868000	-47968.243	7.638	0.223812	0.237604	0.232308	0.306276	
869000	-47975.455	7.655	0.223812	0.237604	0.232308	0.306276	
870000	-47988.509	7.600	0.223812	0.237604	0.232308	0.306276	
871000	-47977.150	7.582	0.223812	0.237604	0.232308	0.306276	
872000	-47987.978	7.642	0.231920	0.231209	0.236069	0.300802	
873000	-47973.025	7.631	0.231920	0.231209	0.236069	0.300802	
874000	-47958.870	7.649	0.229495	0.230262	0.238492	0.301751	
875000	-47979.959	7.738	0.221179	0.228455	0.229293	0.321073	
876000	-47977.255	7.707	0.231985	0.235967	0.232629	0.299419	
877000	-47969.766	7.675	0.220178	0.227795	0.238514	0.313513	
878000	-47969.385	7.631	0.218637	0.238030	0.242899	0.300434	
879000	-47966.894	7.671	0.218637	0.238030	0.242899	0.300434	
880000	-47966.996	7.715	0.218637	0.238030	0.242899	0.300434	
881000	-47972.236	7.725	0.225788	0.239452	0.244040	0.290720	
882000	-47949.048	7.625	0.230697	0.237455	0.233899	0.297950	
883000	-47952.692	7.603	0.230697	0.237455	0.233899	0.297950	
884000	-47924.629	7.577	0.230697	0.237455	0.233899	0.297950	
885000	-47918.241	7.610	0.230697	0.237455	0.233899	0.297950	
886000	-47932.063	7.576	0.230697	0.237455	0.233899	0.297950	
887000	-47934.307	7.577	0.230697	0.237455	0.233899	0.297950	
888000	-47931.840	7.489	0.230697	0.237455	0.233899	0.297950	
889000	-47928.078	7.582	0.224859	0.239977	0.237475	0.297688	
890000	-47931.539	7.588	0.230620	0.246325	0.226977	0.296078	
891000	-47944.896	7.629	0.224540	0.239968	0.230208	0.305284	
892000	-47944.951	7.664	0.224540	0.239968	0.230208	0.305284	
893000	-47924.193	7.626	0.224540	0.239968	0.230208	0.305284	
894000	-47924.814	7.601	0.224540	0.239968	0.230208	0.305284	
895000	-47919.793	7.636	0.220867	0.235871	0.240408	0.302854	
896000	-47925.982	7.650	0.228180	0.237210	0.230218	0.304392	
897000	-47922.243	7.561	0.228180	0.237210	0.230218	0.304392	
898000	-47910.115	7.520	0.228836	0.238635	0.235208	0.297321	
899000	-47899.504	7.518	0.225904	0.238525	0.228540	0.307030	
900000	-47918.642	7.503	0.223813	0.234332	0.234724	0.307130	
901000	-47910.845	7.526	0.223813	0.234332	0.234724	0.307130	
902000	-47905.802	7.564	0.223813	0.234332	0.234724	0.307130	
903000	-47910.957	7.578	0.226666	0.238055	0.244875	0.290404	
904000	-47908.170	7.596	0.217423	0.240191	0.241753	0.300633	
905000	-47916.099	7.669	0.223857	0.246174	0.226942	0.303027	
906000	-47905.511	7.642	0.226790	0.233975	0.231414	0.307821	
907000	-47922.877	7.601	0.226790	0.233975	0.231414	0.307821	
908000	-47911.115	7.615	0.226790	0.233975	0.231414	0.307821	
909000	-47907.238	7.589	0.226790	0.233975	0.231414	0.307821	
910000	-47915.384	7.571	0.226790	0.233975	0.231414	0.307821	
911000	-47908.189	7.597	0.226790	0.233975	0.231414	0.307821	
912000	-47917.561	7.593	0.226790	0.233975	0.231414	0.307821	
913000	-47915.801	7.583	0.226790	0.233975	0.231414	0.307821	
914000	-47923.616	7.611	0.226790	0.233975	0.231414	0.307821	
915000	-47910.846	7.620	0.234220	0.237099	0.234367	0.294314	
916000	-47921.647	7.623	0.234220	0.237099	0.234367	0.294314	
917000	-47937.411	7.648	0.224091	0.235754	0.236229	0.303926	
918000	-47949.989	7.663	0.223085	0.235132	0.229635	0.312148	
919000	-47952.583	7.600	0.223085	0.235132	0.229635	0.312148	
920000	-47950.381	7.605	0.224860	0.232880	0.241967	0.300293	
921000	-47947.783	7.603	0.224860	0.232880	0.241967	0.300293	
922000	-47957.321	7.606	0.227290	0.238624	0.227978	0.306108	
923000	-47949.292	7.557	0.227290	0.238624	0.227978	0.306108	
924000	-47970.023	7.574	0.225731	0.246002	0.234808	0.293459	
925000	-47966.606	7.583	0.225731	0.246002	0.234808	0.293459	
926000	-47958.619	7.541	0.225731	0.246002	0.234808	0.293459	
927000	-47954.743	7.496	0.225731	0.246002	0.234808	0.293459	
928000	-47946.614	7.509	0.238605	0.235391	0.233389	0.292615	
929000	-47951.219	7.504	0.236463	0.232167	0.228156	0.303214	
930000	-47967.729	7.490	0.225036	0.233187	0.232664	0.309112	
931000	-47968.639	7.508	0.225036	0.233187	0.232664	0.309112	
932000	-47960.938	7.514	0.225036	0.233187	0.232664	0.309112	
933000	-47973.047	7.537	0.225036	0.233187	0.232664	0.309112	
934000	-47964.295	7.605	0.225036	0.233187	0.232664	0.309112	
935000	-47994.264	7.551	0.225036	0.233187	0.232664	0.309112	
936000	-47977.950	7.557	0.225036	0.233187	0.232664	0.309112	
937000	-47982.063	7.558	0.225036	0.233187	0.232664	0.309112	
938000	-47965.999	7.558	0.225036	0.233187	0.232664	0.309112	
939000	-47960.939	7.548	0.225036	0.233187	0.232664	0.309112	
940000	-47955.558	7.492	0.225036	0.233187	0.232664	0.309112	
941000	-47983.170	7.517	0.225036	0.233187	0.232664	0.309112	
942000	-47970.873	7.543	0.225036	0.233187	0.232664	0.309112	
943000	-47973.965	7.514	0.222884	0.243234	0.239721	0.294160	
944000	-47936.061	7.513	0.227973	0.241775	0.233437	0.296815	
945000	-47943.585	7.515	0.220885	0.229165	0.238102	0.311849	
946000	-47941.488	7.567	0.218170	0.247941	0.231690	0.302200	
947000	-47950.570	7.583	0.226428	0.249758	0.227144	0.296670	
948000	-47924.149	7.612	0.231722	0.247636	0.223661	0.296981	
949000	-47939.459	7.631	0.223358	0.236182	0.241177	0.299284	
950000	-47939.971	7.628	0.223358	0.236182	0.241177	0.299284	
951000	-47935.725	7.589	0.225044	0.244675	0.232725	0.297556	
952000	-47916.672	7.624	0.232579	0.231916	0.235942	0.299563	
953000	-47928.072	7.571	0.220064	0.235255	0.232685	0.311996	
954000	-47916.908	7.609	0.223484	0.238001	0.235802	0.302713	
955000	-47932.942	7.573	0.227047	0.236150	0.229620	0.307183	
956000	-47927.309	7.578	0.220158	0.240023	0.240440	0.299379	
957000	-47924.890	7.559	0.221767	0.235146	0.231035	0.312052	
958000	-47908.478	7.539	0.223327	0.240728	0.234953	0.300993	
959000	-47893.937	7.558	0.223327	0.240728	0.234953	0.300993	
960000	-47883.698	7.578	0.223327	0.240728	0.234953	0.300993	
961000	-47907.694	7.582	0.223327	0.240728	0.234953	0.300993	
962000	-47917.001	7.658	0.218235	0.243293	0.238032	0.300440	
963000	-47934.104	7.759	0.223237	0.232883	0.227036	0.316843	
964000	-47944.378	7.769	0.229482	0.238033	0.235800	0.296685	
965000	-47936.331	7.768	0.229482	0.238033	0.235800	0.296685	
966000	-47960.054	7.745	0.229482	0.238033	0.235800	0.296685	
967000	-47951.098	7.757	0.229482	0.238033	0.235800	0.296685	
968000	-47945.009	7.747	0.229482	0.238033	0.235800	0.296685	
969000	-47949.376	7.708	0.229482	0.238033	0.235800	0.296685	
970000	-47943.258	7.699	0.232827	0.235536	0.227605	0.304031	
971000	-47957.568	7.695	0.228243	0.237284	0.237474	0.296999	
972000	-47937.673	7.646	0.228243	0.237284	0.237474	0.296999	
973000	-47932.253	7.695	0.231140	0.238038	0.225000	0.305822	
974000	-47928.503	7.644	0.231140	0.238038	0.225000	0.305822	
975000	-47929.487	7.669	0.220034	0.238415	0.236963	0.304588	
976000	-47944.885	7.676	0.230931	0.245406	0.235247	0.288416	
977000	-47935.981	7.625	0.215472	0.240381	0.229136	0.315010	
978000	-47935.230	7.578	0.237686	0.229799	0.235057	0.297457	
979000	-47929.328	7.606	0.219354	0.239247	0.239148	0.302251	
980000	-47942.056	7.612	0.219354	0.239247	0.239148	0.302251	
981000	-47947.305	7.636	0.219354	0.239247	0.239148	0.302251	
982000	-47937.426	7.620	0.219697	0.241720	0.237877	0.300706	
983000	-47928.582	7.629	0.228015	0.234640	0.238612	0.298734	
984000	-47904.565	7.600	0.228015	0.234640	0.238612	0.298734	
985000	-47910.222	7.643	0.225432	0.242551	0.232535	0.299483	
986000	-47916.020	7.598	0.226913	0.237645	0.236241	0.299202	
987000	-47926.243	7.621	0.226913	0.237645	0.236241	0.299202	
988000	-47929.826	7.648	0.226913	0.237645	0.236241	0.299202	
989000	-47921.418	7.605	0.226913	0.237645	0.236241	0.299202	
990000	-47937.842	7.624	0.228361	0.235236	0.225629	0.310774	
991000	-47939.503	7.632	0.228361	0.235236	0.225629	0.310774	
992000	-47945.733	7.545	0.225556	0.235578	0.234303	0.304563	
993000	-47942.910	7.549	0.225556	0.235578	0.234303	0.304563	
994000	-47945.318	7.539	0.233130	0.234434	0.228567	0.303868	
995000	-47951.167	7.538	0.224139	0.244638	0.231600	0.299623	
996000	-47961.230	7.519	0.234869	0.239018	0.227325	0.298788	
997000	-47924.582	7.522	0.223890	0.237043	0.228715	0.310353	
998000	-47920.827	7.536	0.223890	0.237043	0.228715	0.310353	
999000	-47934.946	7.565	0.223890	0.237043	0.228715	0.310353	
1000000	-47924.345	7.598	0.222039	0.237275	0.237768	0.302918	
