[ID: 7499451737]
Gen	LnL	TL	pi(A)	pi(C)	pi(G)	pi(T)	
1	-338256.419	108.500	0.250000	0.250000	0.250000	0.250000	
1000	-312342.270	102.770	0.224882	0.217370	0.205796	0.351952	
2000	-292603.964	97.339	0.229005	0.208088	0.218083	0.344825	
3000	-275997.172	92.305	0.221643	0.210061	0.215257	0.353039	
4000	-263771.098	88.535	0.221643	0.210061	0.215257	0.353039	
5000	-253734.488	84.911	0.221643	0.210061	0.215257	0.353039	
6000	-244020.564	80.808	0.221643	0.210061	0.215257	0.353039	
7000	-237028.639	79.476	0.213653	0.209425	0.219079	0.357843	
8000	-227557.576	75.367	0.213653	0.209425	0.219079	0.357843	
9000	-220089.617	72.217	0.216691	0.211431	0.216779	0.355099	
10000	-212248.044	68.978	0.216691	0.211431	0.216779	0.355099	
11000	-205665.788	66.658	0.216691	0.211431	0.216779	0.355099	
12000	-199278.924	63.219	0.218523	0.215586	0.224507	0.341384	
13000	-192064.484	60.259	0.218523	0.215586	0.224507	0.341384	
14000	-187237.435	57.538	0.218523	0.215586	0.224507	0.341384	
15000	-181561.518	55.069	0.218523	0.215586	0.224507	0.341384	
16000	-176394.379	53.079	0.218523	0.215586	0.224507	0.341384	
17000	-170400.910	51.022	0.214955	0.222617	0.220182	0.342246	
18000	-165574.458	48.303	0.214955	0.222617	0.220182	0.342246	
19000	-160097.142	46.461	0.214955	0.222617	0.220182	0.342246	
20000	-155991.961	44.799	0.217123	0.221406	0.219794	0.341676	
21000	-152780.042	43.324	0.217123	0.221406	0.219794	0.341676	
22000	-150336.834	41.571	0.217123	0.221406	0.219794	0.341676	
23000	-145864.221	40.220	0.217123	0.221406	0.219794	0.341676	
24000	-142840.206	39.117	0.217123	0.221406	0.219794	0.341676	
25000	-139518.112	37.767	0.217123	0.221406	0.219794	0.341676	
26000	-136783.283	36.587	0.217123	0.221406	0.219794	0.341676	
27000	-134595.382	35.330	0.217123	0.221406	0.219794	0.341676	
28000	-132416.129	34.241	0.217123	0.221406	0.219794	0.341676	
29000	-130078.346	32.884	0.217123	0.221406	0.219794	0.341676	
30000	-127559.257	32.088	0.217123	0.221406	0.219794	0.341676	
31000	-125898.373	31.522	0.217123	0.221406	0.219794	0.341676	
32000	-124488.581	30.243	0.217123	0.221406	0.219794	0.341676	
33000	-122465.526	29.639	0.217123	0.221406	0.219794	0.341676	
34000	-120628.992	28.713	0.217123	0.221406	0.219794	0.341676	
35000	-118808.935	27.880	0.217123	0.221406	0.219794	0.341676	
36000	-116745.738	27.118	0.211951	0.227576	0.219073	0.341400	
37000	-115211.077	26.804	0.206860	0.230263	0.220663	0.342214	
38000	-113830.024	26.077	0.206860	0.230263	0.220663	0.342214	
39000	-112320.034	25.441	0.209851	0.219972	0.226504	0.343674	
40000	-110612.931	25.165	0.198899	0.229531	0.239836	0.331734	
41000	-109405.022	24.714	0.206457	0.222476	0.238002	0.333064	
42000	-108003.503	24.142	0.208919	0.229627	0.229995	0.331458	
43000	-106742.019	23.471	0.208919	0.229627	0.229995	0.331458	
44000	-105716.339	22.815	0.208919	0.229627	0.229995	0.331458	
45000	-104350.909	22.360	0.212592	0.234043	0.223211	0.330155	
46000	-103658.303	22.005	0.209073	0.232477	0.231190	0.327260	
47000	-102764.505	21.938	0.209073	0.232477	0.231190	0.327260	
48000	-102148.960	21.874	0.209073	0.232477	0.231190	0.327260	
49000	-101376.411	21.358	0.209073	0.232477	0.231190	0.327260	
50000	-100743.917	21.246	0.209073	0.232477	0.231190	0.327260	
51000	-99963.284	20.718	0.209073	0.232477	0.231190	0.327260	
52000	-99275.596	20.340	0.209073	0.232477	0.231190	0.327260	
53000	-98710.835	19.995	0.209073	0.232477	0.231190	0.327260	
54000	-98076.293	19.661	0.204781	0.236924	0.231343	0.326952	
55000	-97611.534	19.305	0.204781	0.236924	0.231343	0.326952	
56000	-97329.689	19.075	0.204781	0.236924	0.231343	0.326952	
57000	-96860.966	18.734	0.204781	0.236924	0.231343	0.326952	
58000	-96415.692	18.575	0.204781	0.236924	0.231343	0.326952	
59000	-96230.431	18.430	0.204781	0.236924	0.231343	0.326952	
60000	-95618.469	18.116	0.204781	0.236924	0.231343	0.326952	
61000	-95105.217	17.894	0.202934	0.243883	0.233522	0.319661	
62000	-94808.001	17.754	0.206883	0.246616	0.230432	0.316069	
63000	-94196.688	17.715	0.206883	0.246616	0.230432	0.316069	
64000	-93753.282	17.732	0.215371	0.242102	0.227101	0.315426	
65000	-93150.500	17.539	0.215371	0.242102	0.227101	0.315426	
66000	-92938.407	17.373	0.207122	0.237188	0.232357	0.323333	
67000	-92303.729	17.282	0.207122	0.237188	0.232357	0.323333	
68000	-91912.234	17.186	0.207122	0.237188	0.232357	0.323333	
69000	-91086.601	17.194	0.206001	0.232209	0.236560	0.325229	
70000	-90600.939	16.928	0.206001	0.232209	0.236560	0.325229	
71000	-90331.398	16.797	0.210815	0.239635	0.238484	0.311065	
72000	-89671.765	16.652	0.210815	0.239635	0.238484	0.311065	
73000	-89045.207	16.422	0.201258	0.243491	0.239792	0.315459	
74000	-88698.372	16.306	0.201258	0.243491	0.239792	0.315459	
75000	-88370.268	16.000	0.213813	0.234773	0.240294	0.311120	
76000	-87814.965	15.915	0.212609	0.233866	0.231189	0.322336	
77000	-87025.724	15.970	0.212609	0.233866	0.231189	0.322336	
78000	-86623.760	15.856	0.212609	0.233866	0.231189	0.322336	
79000	-86047.259	15.695	0.212609	0.233866	0.231189	0.322336	
80000	-85610.044	15.470	0.210640	0.243187	0.230271	0.315903	
81000	-84884.582	15.525	0.214314	0.240936	0.235721	0.309030	
82000	-84635.278	15.399	0.222386	0.233240	0.227980	0.316394	
83000	-84178.144	15.328	0.222925	0.235846	0.224538	0.316691	
84000	-84067.656	15.229	0.222925	0.235846	0.224538	0.316691	
85000	-83738.711	15.149	0.219671	0.245695	0.223878	0.310757	
86000	-83536.864	15.086	0.218275	0.229724	0.239252	0.312749	
87000	-83398.622	15.091	0.213844	0.240040	0.242283	0.303833	
88000	-83255.726	15.001	0.209967	0.247487	0.232776	0.309770	
89000	-83146.009	14.731	0.218816	0.247317	0.228606	0.305260	
90000	-83055.805	14.806	0.218816	0.247317	0.228606	0.305260	
91000	-82921.150	14.854	0.205726	0.244124	0.234484	0.315667	
92000	-82707.610	14.661	0.218889	0.239492	0.232258	0.309361	
93000	-82638.639	14.681	0.218889	0.239492	0.232258	0.309361	
94000	-82508.987	14.486	0.218889	0.239492	0.232258	0.309361	
95000	-82378.009	14.467	0.218889	0.239492	0.232258	0.309361	
96000	-82179.749	14.315	0.218272	0.244448	0.236481	0.300798	
97000	-81809.046	14.156	0.214628	0.250644	0.230286	0.304442	
98000	-81738.172	14.162	0.218603	0.244919	0.239906	0.296572	
99000	-81515.537	13.979	0.218603	0.244919	0.239906	0.296572	
100000	-81319.679	13.869	0.218603	0.244919	0.239906	0.296572	
101000	-81107.619	13.841	0.209929	0.248296	0.235696	0.306079	
102000	-80993.771	13.747	0.209929	0.248296	0.235696	0.306079	
103000	-80835.577	13.753	0.209929	0.248296	0.235696	0.306079	
104000	-80690.903	13.797	0.209929	0.248296	0.235696	0.306079	
105000	-80575.396	13.873	0.209929	0.248296	0.235696	0.306079	
106000	-80391.542	13.848	0.209929	0.248296	0.235696	0.306079	
107000	-80212.912	13.759	0.209929	0.248296	0.235696	0.306079	
108000	-80105.016	13.679	0.217983	0.249800	0.230604	0.301613	
109000	-79947.290	13.603	0.217983	0.249800	0.230604	0.301613	
110000	-79788.402	13.531	0.215153	0.242148	0.233886	0.308814	
111000	-79698.648	13.514	0.222778	0.244200	0.234844	0.298178	
112000	-79426.507	13.540	0.222778	0.244200	0.234844	0.298178	
113000	-79261.575	13.590	0.222778	0.244200	0.234844	0.298178	
114000	-79065.659	13.617	0.209459	0.247830	0.237071	0.305640	
115000	-78996.986	13.513	0.209459	0.247830	0.237071	0.305640	
116000	-78877.981	13.421	0.209459	0.247830	0.237071	0.305640	
117000	-78835.629	13.449	0.209459	0.247830	0.237071	0.305640	
118000	-78470.442	13.427	0.209459	0.247830	0.237071	0.305640	
119000	-78183.610	13.417	0.209459	0.247830	0.237071	0.305640	
120000	-78097.402	13.400	0.209459	0.247830	0.237071	0.305640	
121000	-77896.119	13.294	0.209459	0.247830	0.237071	0.305640	
122000	-77781.435	13.242	0.209459	0.247830	0.237071	0.305640	
123000	-77138.246	13.237	0.209459	0.247830	0.237071	0.305640	
124000	-77013.195	13.226	0.214999	0.243497	0.241832	0.299672	
125000	-76913.506	13.177	0.211454	0.251449	0.237021	0.300076	
126000	-76856.984	13.076	0.224531	0.248495	0.230298	0.296677	
127000	-76810.406	12.986	0.217420	0.239479	0.237324	0.305777	
128000	-76694.558	12.888	0.217420	0.239479	0.237324	0.305777	
129000	-76612.376	12.944	0.217451	0.245301	0.239163	0.298085	
130000	-76547.155	12.794	0.217451	0.245301	0.239163	0.298085	
131000	-76515.842	12.841	0.217451	0.245301	0.239163	0.298085	
132000	-76454.368	12.850	0.217451	0.245301	0.239163	0.298085	
133000	-76437.421	12.861	0.216587	0.249305	0.235262	0.298846	
134000	-76413.130	12.780	0.216587	0.249305	0.235262	0.298846	
135000	-76328.576	12.918	0.213866	0.240136	0.237162	0.308836	
136000	-76288.125	12.876	0.212452	0.245180	0.242755	0.299613	
137000	-76253.712	13.019	0.212452	0.245180	0.242755	0.299613	
138000	-76133.712	12.856	0.212452	0.245180	0.242755	0.299613	
139000	-76094.821	12.828	0.212452	0.245180	0.242755	0.299613	
140000	-75990.296	12.792	0.212452	0.245180	0.242755	0.299613	
141000	-75932.578	12.723	0.212452	0.245180	0.242755	0.299613	
142000	-75911.390	12.642	0.212452	0.245180	0.242755	0.299613	
143000	-75860.690	12.547	0.212452	0.245180	0.242755	0.299613	
144000	-75805.215	12.446	0.212452	0.245180	0.242755	0.299613	
145000	-75792.955	12.447	0.212452	0.245180	0.242755	0.299613	
146000	-75779.022	12.387	0.212131	0.248604	0.239711	0.299554	
147000	-75732.977	12.462	0.212131	0.248604	0.239711	0.299554	
148000	-75691.552	12.448	0.212131	0.248604	0.239711	0.299554	
149000	-75675.440	12.467	0.212131	0.248604	0.239711	0.299554	
150000	-75635.752	12.480	0.214597	0.248859	0.235598	0.300947	
151000	-75460.098	12.541	0.214597	0.248859	0.235598	0.300947	
152000	-75442.797	12.587	0.214597	0.248859	0.235598	0.300947	
153000	-75430.356	12.596	0.214597	0.248859	0.235598	0.300947	
154000	-75420.388	12.669	0.217357	0.242567	0.238194	0.301881	
155000	-75424.803	12.706	0.217357	0.242567	0.238194	0.301881	
156000	-75383.919	12.724	0.211194	0.245120	0.238920	0.304765	
157000	-75314.233	12.591	0.211194	0.245120	0.238920	0.304765	
158000	-75107.441	12.521	0.211194	0.245120	0.238920	0.304765	
159000	-74973.073	12.508	0.211194	0.245120	0.238920	0.304765	
160000	-74637.718	12.543	0.211194	0.245120	0.238920	0.304765	
161000	-74577.082	12.503	0.211194	0.245120	0.238920	0.304765	
162000	-74568.298	12.521	0.211194	0.245120	0.238920	0.304765	
163000	-74552.986	12.538	0.211194	0.245120	0.238920	0.304765	
164000	-74447.059	12.579	0.211194	0.245120	0.238920	0.304765	
165000	-74136.457	13.285	0.215636	0.241484	0.225044	0.317836	
166000	-73667.322	13.362	0.210596	0.243409	0.225932	0.320063	
167000	-73398.138	13.307	0.210596	0.243409	0.225932	0.320063	
168000	-72970.416	13.330	0.214476	0.233845	0.226182	0.325497	
169000	-72713.437	12.402	0.210147	0.242775	0.238143	0.308935	
170000	-72467.685	12.409	0.215823	0.238492	0.230608	0.315077	
171000	-72095.547	13.006	0.208833	0.236092	0.228033	0.327042	
172000	-71704.314	12.989	0.219902	0.234351	0.229586	0.316161	
173000	-70972.072	12.355	0.219280	0.245531	0.229198	0.305991	
174000	-69966.097	12.137	0.219280	0.245531	0.229198	0.305991	
175000	-69623.010	12.037	0.219280	0.245531	0.229198	0.305991	
176000	-69178.312	12.124	0.229107	0.242076	0.219301	0.309516	
177000	-68693.338	12.058	0.218648	0.245790	0.233061	0.302500	
178000	-68361.165	12.406	0.216242	0.242640	0.230172	0.310945	
179000	-67733.008	12.377	0.216242	0.242640	0.230172	0.310945	
180000	-67333.152	12.280	0.216242	0.242640	0.230172	0.310945	
181000	-67103.075	12.121	0.216242	0.242640	0.230172	0.310945	
182000	-66453.057	12.028	0.216242	0.242640	0.230172	0.310945	
183000	-65892.889	11.711	0.213005	0.238789	0.229356	0.318850	
184000	-65362.877	11.430	0.221826	0.232884	0.231756	0.313534	
185000	-64746.764	11.430	0.218565	0.227704	0.228679	0.325051	
186000	-64358.571	11.473	0.218565	0.227704	0.228679	0.325051	
187000	-63813.907	11.383	0.219084	0.230275	0.219968	0.330673	
188000	-63567.483	11.499	0.219084	0.230275	0.219968	0.330673	
189000	-62844.010	11.451	0.225037	0.237872	0.229041	0.308050	
190000	-62429.087	11.364	0.225037	0.237872	0.229041	0.308050	
191000	-62083.750	11.285	0.225037	0.237872	0.229041	0.308050	
192000	-61868.929	11.089	0.225037	0.237872	0.229041	0.308050	
193000	-61060.490	10.996	0.221783	0.240281	0.217832	0.320104	
194000	-60925.683	10.925	0.224670	0.240350	0.221651	0.313330	
195000	-60654.841	10.855	0.219603	0.235551	0.223821	0.321025	
196000	-60211.315	10.688	0.219603	0.235551	0.223821	0.321025	
197000	-59992.321	10.570	0.216409	0.239221	0.223854	0.320516	
198000	-59891.594	10.493	0.216409	0.239221	0.223854	0.320516	
199000	-59350.714	10.403	0.216409	0.239221	0.223854	0.320516	
200000	-59281.205	10.428	0.216409	0.239221	0.223854	0.320516	
201000	-59010.556	10.380	0.210491	0.236778	0.227777	0.324954	
202000	-58743.520	10.291	0.222654	0.227993	0.220343	0.329009	
203000	-58297.410	10.241	0.225345	0.232893	0.221575	0.320186	
204000	-58119.602	10.171	0.225345	0.232893	0.221575	0.320186	
205000	-57890.172	10.199	0.212439	0.229996	0.228969	0.328597	
206000	-57754.473	10.083	0.229252	0.226883	0.215530	0.328335	
207000	-57193.584	9.956	0.219371	0.234835	0.218388	0.327406	
208000	-57031.937	9.862	0.229322	0.226353	0.218190	0.326134	
209000	-56941.143	9.785	0.226823	0.234587	0.226751	0.311839	
210000	-56833.461	9.797	0.219607	0.236674	0.222518	0.321201	
211000	-56759.902	9.793	0.231748	0.225840	0.221501	0.320910	
212000	-56699.475	9.777	0.231748	0.225840	0.221501	0.320910	
213000	-56612.008	9.719	0.231748	0.225840	0.221501	0.320910	
214000	-56558.167	9.691	0.231748	0.225840	0.221501	0.320910	
215000	-56526.028	9.672	0.228702	0.233556	0.218452	0.319290	
216000	-56461.552	9.659	0.226712	0.232850	0.226412	0.314025	
217000	-56414.989	9.647	0.215891	0.230459	0.230494	0.323155	
218000	-56392.336	9.596	0.215891	0.230459	0.230494	0.323155	
219000	-56333.328	9.410	0.215891	0.230459	0.230494	0.323155	
220000	-56283.368	9.407	0.220353	0.234876	0.231422	0.313348	
221000	-56246.276	9.400	0.222882	0.236539	0.230223	0.310356	
222000	-56215.149	9.496	0.224300	0.229610	0.221464	0.324626	
223000	-56180.936	9.438	0.224300	0.229610	0.221464	0.324626	
224000	-56161.086	9.407	0.222384	0.231461	0.220965	0.325190	
225000	-56149.000	9.437	0.220264	0.233483	0.222007	0.324246	
226000	-56113.939	9.400	0.220264	0.233483	0.222007	0.324246	
227000	-56080.962	9.418	0.220264	0.233483	0.222007	0.324246	
228000	-56033.574	9.376	0.219293	0.228671	0.230293	0.321744	
229000	-55752.390	9.334	0.231723	0.234547	0.226359	0.307371	
230000	-55644.404	9.313	0.225526	0.234624	0.226328	0.313522	
231000	-55495.651	9.374	0.225526	0.234624	0.226328	0.313522	
232000	-55347.912	9.364	0.225526	0.234624	0.226328	0.313522	
233000	-55189.817	9.331	0.225526	0.234624	0.226328	0.313522	
234000	-54851.143	9.309	0.225526	0.234624	0.226328	0.313522	
235000	-54598.726	9.443	0.225105	0.229264	0.225879	0.319752	
236000	-54398.313	9.484	0.225291	0.238276	0.223022	0.313410	
237000	-54185.858	9.185	0.209769	0.234718	0.231545	0.323969	
238000	-54119.284	9.225	0.221478	0.242815	0.231398	0.304309	
239000	-53992.939	9.141	0.218515	0.233228	0.236460	0.311798	
240000	-53907.705	9.030	0.225355	0.231730	0.233444	0.309471	
241000	-53706.757	8.915	0.212857	0.234376	0.235157	0.317611	
242000	-53644.209	8.788	0.212857	0.234376	0.235157	0.317611	
243000	-53607.378	8.794	0.217240	0.231841	0.230954	0.319965	
244000	-53450.893	8.792	0.218292	0.235292	0.232817	0.313599	
245000	-53433.971	8.799	0.221432	0.237630	0.224141	0.316797	
246000	-53323.875	8.744	0.216886	0.230524	0.237424	0.315166	
247000	-53025.013	8.652	0.213283	0.232850	0.238613	0.315253	
248000	-52676.668	8.640	0.213283	0.232850	0.238613	0.315253	
249000	-52551.184	8.591	0.214442	0.225253	0.235303	0.325002	
250000	-52453.760	8.524	0.215248	0.237025	0.232133	0.315593	
251000	-52428.634	8.559	0.215248	0.237025	0.232133	0.315593	
252000	-52397.743	8.495	0.215248	0.237025	0.232133	0.315593	
253000	-52357.508	8.559	0.215248	0.237025	0.232133	0.315593	
254000	-52297.817	8.514	0.215248	0.237025	0.232133	0.315593	
255000	-52261.900	8.488	0.215248	0.237025	0.232133	0.315593	
256000	-52242.689	8.560	0.217313	0.235811	0.231649	0.315227	
257000	-52208.009	8.513	0.217313	0.235811	0.231649	0.315227	
258000	-52172.474	8.523	0.217313	0.235811	0.231649	0.315227	
259000	-52146.264	8.531	0.217313	0.235811	0.231649	0.315227	
260000	-52124.324	8.463	0.217313	0.235811	0.231649	0.315227	
261000	-52112.363	8.463	0.217313	0.235811	0.231649	0.315227	
262000	-52127.823	8.538	0.214643	0.243123	0.239127	0.303106	
263000	-52098.800	8.544	0.214643	0.243123	0.239127	0.303106	
264000	-51993.872	8.510	0.214353	0.241302	0.235973	0.308372	
265000	-51946.577	8.444	0.214353	0.241302	0.235973	0.308372	
266000	-51896.428	8.351	0.213311	0.247437	0.229189	0.310064	
267000	-51773.990	8.343	0.214223	0.229767	0.241726	0.314284	
268000	-51563.743	8.392	0.221462	0.238932	0.236540	0.303067	
269000	-51476.696	8.381	0.221462	0.238932	0.236540	0.303067	
270000	-51311.044	8.495	0.221462	0.238932	0.236540	0.303067	
271000	-51291.443	8.427	0.221462	0.238932	0.236540	0.303067	
272000	-51176.387	8.396	0.224587	0.243254	0.231078	0.301081	
273000	-51127.669	8.293	0.224587	0.243254	0.231078	0.301081	
274000	-50884.195	8.251	0.224587	0.243254	0.231078	0.301081	
275000	-50845.180	8.226	0.224587	0.243254	0.231078	0.301081	
276000	-50771.267	8.254	0.224587	0.243254	0.231078	0.301081	
277000	-50663.703	8.160	0.224375	0.242439	0.223414	0.309772	
278000	-50647.360	8.118	0.224375	0.242439	0.223414	0.309772	
279000	-50645.343	8.141	0.221282	0.232707	0.237534	0.308477	
280000	-50608.130	8.109	0.222873	0.234443	0.238076	0.304608	
281000	-50600.815	8.120	0.222873	0.234443	0.238076	0.304608	
282000	-50604.668	8.157	0.222681	0.238934	0.229898	0.308487	
283000	-50569.414	8.122	0.222681	0.238934	0.229898	0.308487	
284000	-50490.689	8.096	0.222681	0.238934	0.229898	0.308487	
285000	-50457.930	8.085	0.222681	0.238934	0.229898	0.308487	
286000	-50462.826	8.052	0.222681	0.238934	0.229898	0.308487	
287000	-50450.539	8.050	0.222681	0.238934	0.229898	0.308487	
288000	-50448.097	8.073	0.222681	0.238934	0.229898	0.308487	
289000	-50412.832	8.069	0.222681	0.238934	0.229898	0.308487	
290000	-50368.652	8.050	0.222681	0.238934	0.229898	0.308487	
291000	-50337.694	8.053	0.224633	0.234281	0.230941	0.310144	
292000	-50307.281	7.998	0.224633	0.234281	0.230941	0.310144	
293000	-50316.798	7.988	0.227397	0.238676	0.226852	0.307075	
294000	-50221.124	7.998	0.220286	0.240005	0.228001	0.311708	
295000	-50161.307	7.987	0.220286	0.240005	0.228001	0.311708	
296000	-50139.403	8.002	0.217956	0.236361	0.233763	0.311921	
297000	-50108.091	8.028	0.217956	0.236361	0.233763	0.311921	
298000	-50092.741	8.005	0.218061	0.235925	0.228232	0.317783	
299000	-50056.040	7.993	0.226690	0.238814	0.226650	0.307846	
300000	-50040.821	8.039	0.224133	0.234298	0.233174	0.308396	
301000	-50040.985	8.000	0.224133	0.234298	0.233174	0.308396	
302000	-50044.993	8.011	0.224133	0.234298	0.233174	0.308396	
303000	-50042.117	8.065	0.224133	0.234298	0.233174	0.308396	
304000	-50043.600	8.029	0.227217	0.233865	0.235556	0.303363	
305000	-50035.692	8.052	0.216194	0.241808	0.228711	0.313287	
306000	-50004.823	8.069	0.221753	0.234036	0.235608	0.308603	
307000	-49994.858	8.054	0.228648	0.240481	0.228507	0.302365	
308000	-49997.892	7.992	0.216840	0.236652	0.237177	0.309331	
309000	-49979.346	7.962	0.216840	0.236652	0.237177	0.309331	
310000	-49955.194	7.911	0.216840	0.236652	0.237177	0.309331	
311000	-49932.817	7.996	0.216840	0.236652	0.237177	0.309331	
312000	-49923.976	7.926	0.216840	0.236652	0.237177	0.309331	
313000	-49922.625	7.877	0.216840	0.236652	0.237177	0.309331	
314000	-49888.054	7.897	0.216840	0.236652	0.237177	0.309331	
315000	-49888.364	7.814	0.216840	0.236652	0.237177	0.309331	
316000	-49903.272	7.837	0.229023	0.234024	0.229190	0.307763	
317000	-49880.122	7.865	0.223492	0.244206	0.227543	0.304759	
318000	-49877.691	7.881	0.223492	0.244206	0.227543	0.304759	
319000	-49892.685	7.915	0.219875	0.233598	0.234181	0.312346	
320000	-49888.749	7.950	0.219875	0.233598	0.234181	0.312346	
321000	-49888.914	7.941	0.214716	0.237928	0.234421	0.312935	
322000	-49882.638	7.957	0.226473	0.236351	0.232015	0.305161	
323000	-49875.718	7.928	0.226473	0.236351	0.232015	0.305161	
324000	-49845.029	7.875	0.226473	0.236351	0.232015	0.305161	
325000	-49851.179	7.893	0.225042	0.235665	0.235187	0.304106	
326000	-49872.156	7.910	0.225042	0.235665	0.235187	0.304106	
327000	-49849.709	7.870	0.225042	0.235665	0.235187	0.304106	
328000	-49837.657	7.921	0.225042	0.235665	0.235187	0.304106	
329000	-49850.043	7.931	0.225042	0.235665	0.235187	0.304106	
330000	-49857.499	7.905	0.225042	0.235665	0.235187	0.304106	
331000	-49851.541	7.892	0.225042	0.235665	0.235187	0.304106	
332000	-49868.203	7.889	0.224886	0.245961	0.228180	0.300973	
333000	-49842.277	7.888	0.224886	0.245961	0.228180	0.300973	
334000	-49821.912	7.863	0.224886	0.245961	0.228180	0.300973	
335000	-49834.974	7.865	0.218285	0.234582	0.226370	0.320763	
336000	-49818.516	7.882	0.222794	0.242398	0.232101	0.302706	
337000	-49814.431	7.844	0.222794	0.242398	0.232101	0.302706	
338000	-49802.484	7.855	0.222794	0.242398	0.232101	0.302706	
339000	-49797.044	7.919	0.218831	0.244538	0.234533	0.302097	
340000	-49797.857	7.924	0.218831	0.244538	0.234533	0.302097	
341000	-49791.988	7.956	0.226821	0.235798	0.227606	0.309775	
342000	-49789.107	7.976	0.227455	0.233021	0.224573	0.314951	
343000	-49769.253	7.958	0.219208	0.234985	0.234309	0.311498	
344000	-49766.996	7.895	0.219208	0.234985	0.234309	0.311498	
345000	-49765.137	7.893	0.219208	0.234985	0.234309	0.311498	
346000	-49778.491	7.889	0.219208	0.234985	0.234309	0.311498	
347000	-49819.082	7.806	0.235819	0.237395	0.229340	0.297446	
348000	-49808.244	7.819	0.219722	0.235875	0.228027	0.316377	
349000	-49792.961	7.825	0.221136	0.243159	0.229987	0.305719	
350000	-49778.100	7.881	0.221136	0.243159	0.229987	0.305719	
351000	-49805.371	7.896	0.221136	0.243159	0.229987	0.305719	
352000	-49769.650	7.875	0.221136	0.243159	0.229987	0.305719	
353000	-49780.195	7.854	0.221136	0.243159	0.229987	0.305719	
354000	-49800.265	7.867	0.221136	0.243159	0.229987	0.305719	
355000	-49795.391	7.887	0.221136	0.243159	0.229987	0.305719	
356000	-49801.775	7.899	0.221136	0.243159	0.229987	0.305719	
357000	-49804.103	7.890	0.221136	0.243159	0.229987	0.305719	
358000	-49814.813	7.892	0.220154	0.238864	0.230834	0.310147	
359000	-49815.582	7.858	0.220154	0.238864	0.230834	0.310147	
360000	-49831.512	7.867	0.220154	0.238864	0.230834	0.310147	
361000	-49829.236	7.833	0.231506	0.237860	0.231316	0.299318	
362000	-49818.146	7.878	0.227413	0.232057	0.231893	0.308638	
363000	-49814.013	7.828	0.227413	0.232057	0.231893	0.308638	
364000	-49814.074	7.852	0.227413	0.232057	0.231893	0.308638	
365000	-49804.057	7.784	0.227947	0.241055	0.234506	0.296492	
366000	-49814.160	7.791	0.214905	0.247166	0.228642	0.309288	
367000	-49806.098	7.751	0.215541	0.238424	0.239258	0.306776	
368000	-49793.894	7.706	0.224771	0.237692	0.224074	0.313462	
369000	-49797.248	7.712	0.221829	0.245020	0.228628	0.304523	
370000	-49775.600	7.754	0.221829	0.245020	0.228628	0.304523	
371000	-49773.881	7.723	0.221829	0.245020	0.228628	0.304523	
372000	-49763.228	7.713	0.222997	0.238348	0.225579	0.313076	
373000	-49754.222	7.730	0.217016	0.246238	0.225253	0.311494	
374000	-49743.536	7.695	0.227320	0.230194	0.229750	0.312736	
375000	-49749.464	7.772	0.217117	0.243536	0.222508	0.316839	
376000	-49749.911	7.783	0.219380	0.244031	0.228428	0.308162	
377000	-49738.459	7.781	0.225745	0.236212	0.234357	0.303685	
378000	-49741.102	7.803	0.227968	0.237089	0.231310	0.303633	
379000	-49729.900	7.868	0.227968	0.237089	0.231310	0.303633	
380000	-49739.704	7.874	0.227968	0.237089	0.231310	0.303633	
381000	-49760.570	7.853	0.230394	0.233467	0.235226	0.300913	
382000	-49742.916	7.839	0.230394	0.233467	0.235226	0.300913	
383000	-49723.388	7.842	0.230394	0.233467	0.235226	0.300913	
384000	-49746.762	7.822	0.218073	0.239261	0.230382	0.312284	
385000	-49739.215	7.809	0.219293	0.235996	0.234075	0.310636	
386000	-49745.521	7.806	0.222876	0.233570	0.234546	0.309008	
387000	-49731.547	7.785	0.222876	0.233570	0.234546	0.309008	
388000	-49745.314	7.775	0.227588	0.235732	0.232083	0.304597	
389000	-49737.094	7.819	0.219578	0.239965	0.230964	0.309493	
390000	-49723.955	7.846	0.219578	0.239965	0.230964	0.309493	
391000	-49717.100	7.842	0.225094	0.242178	0.226336	0.306392	
392000	-49731.713	7.836	0.225094	0.242178	0.226336	0.306392	
393000	-49721.727	7.873	0.222747	0.235308	0.235378	0.306568	
394000	-49718.925	7.893	0.228876	0.245721	0.231965	0.293438	
395000	-49704.443	7.888	0.225554	0.247250	0.223068	0.304128	
396000	-49712.415	7.873	0.223857	0.245160	0.228760	0.302224	
397000	-49704.023	7.857	0.223857	0.245160	0.228760	0.302224	
398000	-49707.983	7.886	0.219862	0.245621	0.235653	0.298864	
399000	-49709.615	7.825	0.222936	0.241822	0.222770	0.312472	
400000	-49735.341	7.823	0.222936	0.241822	0.222770	0.312472	
401000	-49730.876	7.852	0.221760	0.230284	0.233688	0.314268	
402000	-49726.108	7.859	0.223208	0.239160	0.225645	0.311987	
403000	-49720.504	7.845	0.223208	0.239160	0.225645	0.311987	
404000	-49720.313	7.807	0.223208	0.239160	0.225645	0.311987	
405000	-49722.762	7.810	0.223208	0.239160	0.225645	0.311987	
406000	-49701.815	7.862	0.221788	0.238968	0.229068	0.310177	
407000	-49678.342	7.803	0.226807	0.230167	0.230276	0.312750	
408000	-49677.730	7.821	0.230941	0.241263	0.230417	0.297379	
409000	-49687.375	7.824	0.230941	0.241263	0.230417	0.297379	
410000	-49691.025	7.790	0.230941	0.241263	0.230417	0.297379	
411000	-49684.115	7.801	0.230941	0.241263	0.230417	0.297379	
412000	-49674.504	7.728	0.230941	0.241263	0.230417	0.297379	
413000	-49696.342	7.782	0.216432	0.240242	0.229445	0.313881	
414000	-49711.883	7.864	0.221843	0.238640	0.240935	0.298582	
415000	-49700.712	7.928	0.214654	0.243078	0.227918	0.314350	
416000	-49673.849	7.837	0.214654	0.243078	0.227918	0.314350	
417000	-49670.888	7.811	0.219356	0.239115	0.228266	0.313264	
418000	-49664.016	7.744	0.219356	0.239115	0.228266	0.313264	
419000	-49682.085	7.752	0.232560	0.241035	0.224823	0.301582	
420000	-49666.710	7.761	0.228523	0.243837	0.227714	0.299926	
421000	-49655.334	7.779	0.219148	0.242609	0.229470	0.308773	
422000	-49665.004	7.775	0.219148	0.242609	0.229470	0.308773	
423000	-49690.262	7.803	0.218348	0.242094	0.234071	0.305488	
424000	-49478.942	7.767	0.218348	0.242094	0.234071	0.305488	
425000	-49494.296	7.828	0.218348	0.242094	0.234071	0.305488	
426000	-49494.314	7.810	0.223922	0.239111	0.229401	0.307566	
427000	-49433.348	7.797	0.223922	0.239111	0.229401	0.307566	
428000	-49418.063	7.776	0.215299	0.239483	0.237658	0.307560	
429000	-49414.918	7.785	0.220440	0.244846	0.236190	0.298524	
430000	-49403.238	7.790	0.220440	0.244846	0.236190	0.298524	
431000	-49385.845	7.855	0.220440	0.244846	0.236190	0.298524	
432000	-49375.773	7.871	0.220440	0.244846	0.236190	0.298524	
433000	-49362.247	7.845	0.220440	0.244846	0.236190	0.298524	
434000	-49365.941	7.836	0.220440	0.244846	0.236190	0.298524	
435000	-49359.309	7.808	0.220440	0.244846	0.236190	0.298524	
436000	-49369.444	7.783	0.220440	0.244846	0.236190	0.298524	
437000	-49360.795	7.807	0.220440	0.244846	0.236190	0.298524	
438000	-49364.725	7.860	0.230115	0.243304	0.219931	0.306650	
439000	-49364.010	7.834	0.218249	0.238613	0.237618	0.305520	
440000	-49388.153	7.874	0.218249	0.238613	0.237618	0.305520	
441000	-49397.795	7.923	0.230420	0.227356	0.240027	0.302197	
442000	-49381.712	7.877	0.217939	0.244649	0.217896	0.319517	
443000	-49384.076	7.872	0.217924	0.249995	0.231187	0.300894	
444000	-49392.567	7.871	0.216172	0.239263	0.228413	0.316151	
445000	-49400.586	7.852	0.227105	0.245157	0.236025	0.291713	
446000	-49395.226	7.723	0.227105	0.245157	0.236025	0.291713	
447000	-49382.053	7.787	0.227105	0.245157	0.236025	0.291713	
448000	-49382.714	7.838	0.216536	0.242946	0.239371	0.301147	
449000	-49386.261	7.840	0.216639	0.244443	0.228445	0.310473	
450000	-49395.360	7.882	0.216639	0.244443	0.228445	0.310473	
451000	-49380.733	7.861	0.226893	0.239205	0.236034	0.297868	
452000	-49381.888	7.891	0.226893	0.239205	0.236034	0.297868	
453000	-49378.630	7.854	0.226893	0.239205	0.236034	0.297868	
454000	-49383.345	7.890	0.226893	0.239205	0.236034	0.297868	
455000	-49357.496	7.906	0.224939	0.234694	0.222925	0.317442	
456000	-49362.303	7.898	0.224939	0.234694	0.222925	0.317442	
457000	-49354.194	7.847	0.222293	0.238778	0.230134	0.308795	
458000	-49366.688	7.813	0.219446	0.242475	0.226916	0.311164	
459000	-49369.482	7.825	0.232809	0.242623	0.224412	0.300156	
460000	-49346.724	7.803	0.232809	0.242623	0.224412	0.300156	
461000	-49347.823	7.799	0.224623	0.242109	0.224761	0.308508	
462000	-49344.731	7.776	0.224623	0.242109	0.224761	0.308508	
463000	-49340.002	7.732	0.228621	0.247821	0.224108	0.299450	
464000	-49346.829	7.773	0.226178	0.249771	0.223370	0.300681	
465000	-49356.476	7.788	0.224197	0.247434	0.239799	0.288570	
466000	-49365.893	7.792	0.224016	0.233799	0.236721	0.305465	
467000	-49387.498	7.768	0.228991	0.247097	0.223351	0.300561	
468000	-49371.461	7.714	0.228570	0.246830	0.229700	0.294901	
469000	-49371.333	7.754	0.228570	0.246830	0.229700	0.294901	
470000	-49334.520	7.745	0.229575	0.243225	0.231608	0.295592	
471000	-49327.571	7.651	0.229575	0.243225	0.231608	0.295592	
472000	-49324.617	7.666	0.229575	0.243225	0.231608	0.295592	
473000	-49317.189	7.663	0.229575	0.243225	0.231608	0.295592	
474000	-49323.792	7.667	0.229575	0.243225	0.231608	0.295592	
475000	-49317.457	7.653	0.229575	0.243225	0.231608	0.295592	
476000	-49315.484	7.762	0.229575	0.243225	0.231608	0.295592	
477000	-49332.382	7.824	0.229575	0.243225	0.231608	0.295592	
478000	-49328.928	7.759	0.229575	0.243225	0.231608	0.295592	
479000	-49345.135	7.705	0.225109	0.241598	0.239698	0.293594	
480000	-49340.048	7.753	0.219241	0.241637	0.228271	0.310850	
481000	-49330.037	7.791	0.222319	0.241710	0.236085	0.299886	
482000	-49329.021	7.732	0.222319	0.241710	0.236085	0.299886	
483000	-49331.404	7.755	0.222319	0.241710	0.236085	0.299886	
484000	-49329.967	7.747	0.222319	0.241710	0.236085	0.299886	
485000	-49338.624	7.786	0.222319	0.241710	0.236085	0.299886	
486000	-49328.701	7.756	0.224096	0.248445	0.230496	0.296963	
487000	-49321.462	7.719	0.230138	0.235228	0.222717	0.311916	
488000	-49309.631	7.683	0.214779	0.238220	0.233438	0.313563	
489000	-49317.581	7.700	0.220144	0.246283	0.227679	0.305894	
490000	-49328.526	7.680	0.220144	0.246283	0.227679	0.305894	
491000	-49303.476	7.698	0.226735	0.237621	0.229010	0.306635	
492000	-49294.032	7.709	0.226735	0.237621	0.229010	0.306635	
493000	-49287.307	7.668	0.226735	0.237621	0.229010	0.306635	
494000	-49318.858	7.747	0.226735	0.237621	0.229010	0.306635	
495000	-49345.135	7.767	0.226735	0.237621	0.229010	0.306635	
496000	-49332.116	7.739	0.226735	0.237621	0.229010	0.306635	
497000	-49331.744	7.779	0.225306	0.235461	0.235410	0.303822	
498000	-49331.580	7.737	0.229041	0.237753	0.232589	0.300617	
499000	-49320.110	7.758	0.226407	0.241540	0.229322	0.302732	
500000	-49293.389	7.707	0.226407	0.241540	0.229322	0.302732	
501000	-49281.313	7.708	0.226407	0.241540	0.229322	0.302732	
502000	-49294.101	7.682	0.226407	0.241540	0.229322	0.302732	
503000	-49324.743	7.712	0.226407	0.241540	0.229322	0.302732	
504000	-49339.604	7.723	0.226407	0.241540	0.229322	0.302732	
505000	-49328.539	7.710	0.219068	0.242232	0.235410	0.303290	
506000	-49314.715	7.675	0.219068	0.242232	0.235410	0.303290	
507000	-49318.433	7.724	0.227529	0.242964	0.234049	0.295458	
508000	-49325.142	7.704	0.221399	0.241428	0.233162	0.304011	
509000	-49343.009	7.748	0.221399	0.241428	0.233162	0.304011	
510000	-49355.580	7.754	0.221399	0.241428	0.233162	0.304011	
511000	-49337.895	7.770	0.221399	0.241428	0.233162	0.304011	
512000	-49343.294	7.763	0.221417	0.236578	0.235263	0.306741	
513000	-49337.904	7.788	0.221417	0.236578	0.235263	0.306741	
514000	-49349.202	7.749	0.221417	0.236578	0.235263	0.306741	
515000	-49311.689	7.735	0.221417	0.236578	0.235263	0.306741	
516000	-49295.248	7.703	0.229109	0.232064	0.224194	0.314633	
517000	-49295.195	7.738	0.215599	0.236542	0.239893	0.307966	
518000	-49282.487	7.734	0.215599	0.236542	0.239893	0.307966	
519000	-49292.841	7.791	0.215599	0.236542	0.239893	0.307966	
520000	-49272.794	7.689	0.218979	0.236751	0.234990	0.309280	
521000	-49260.161	7.661	0.218979	0.236751	0.234990	0.309280	
522000	-49252.042	7.666	0.219675	0.239195	0.241505	0.299625	
523000	-49238.363	7.656	0.234976	0.241269	0.228621	0.295134	
524000	-49242.080	7.665	0.224892	0.249254	0.232360	0.293494	
525000	-49258.681	7.672	0.218832	0.243219	0.240673	0.297276	
526000	-49242.620	7.652	0.216577	0.241547	0.237324	0.304552	
527000	-49229.022	7.657	0.216577	0.241547	0.237324	0.304552	
528000	-49254.148	7.686	0.231572	0.237265	0.226512	0.304651	
529000	-49249.072	7.670	0.231572	0.237265	0.226512	0.304651	
530000	-49248.347	7.656	0.224841	0.243107	0.231723	0.300329	
531000	-49252.025	7.677	0.228428	0.238833	0.232499	0.300240	
532000	-49250.205	7.671	0.222810	0.231469	0.240769	0.304952	
533000	-49247.017	7.618	0.222810	0.231469	0.240769	0.304952	
534000	-49243.414	7.640	0.229051	0.241943	0.235950	0.293055	
535000	-49233.299	7.656	0.233957	0.241155	0.231905	0.292983	
536000	-49243.511	7.630	0.223322	0.249228	0.227637	0.299812	
537000	-49231.339	7.688	0.222044	0.231485	0.239887	0.306583	
538000	-49234.015	7.627	0.223357	0.239952	0.223837	0.312855	
539000	-49248.826	7.661	0.223093	0.234464	0.239136	0.303308	
540000	-49257.283	7.700	0.223093	0.234464	0.239136	0.303308	
541000	-49266.393	7.708	0.223093	0.234464	0.239136	0.303308	
542000	-49265.620	7.690	0.224182	0.243240	0.225798	0.306780	
543000	-49255.280	7.689	0.235231	0.237998	0.229178	0.297594	
544000	-49235.552	7.668	0.235231	0.237998	0.229178	0.297594	
545000	-49252.263	7.689	0.215161	0.242595	0.233220	0.309025	
546000	-49253.528	7.700	0.215161	0.242595	0.233220	0.309025	
547000	-49247.265	7.703	0.226108	0.237495	0.229970	0.306426	
548000	-49283.493	7.728	0.227161	0.238842	0.232307	0.301690	
549000	-49291.625	7.733	0.227161	0.238842	0.232307	0.301690	
550000	-49289.125	7.741	0.227161	0.238842	0.232307	0.301690	
551000	-49279.681	7.747	0.227161	0.238842	0.232307	0.301690	
552000	-49264.215	7.743	0.227161	0.238842	0.232307	0.301690	
553000	-49272.186	7.721	0.227161	0.238842	0.232307	0.301690	
554000	-49264.186	7.640	0.227161	0.238842	0.232307	0.301690	
555000	-49270.223	7.659	0.227161	0.238842	0.232307	0.301690	
556000	-49274.909	7.697	0.227161	0.238842	0.232307	0.301690	
557000	-49264.031	7.714	0.227161	0.238842	0.232307	0.301690	
558000	-49261.783	7.789	0.227161	0.238842	0.232307	0.301690	
559000	-49273.599	7.796	0.226109	0.237105	0.236765	0.300022	
560000	-49266.685	7.821	0.224478	0.239783	0.232038	0.303700	
561000	-49255.077	7.831	0.224809	0.239535	0.228887	0.306770	
562000	-49272.085	7.778	0.224809	0.239535	0.228887	0.306770	
563000	-49279.324	7.742	0.229590	0.231600	0.238942	0.299867	
564000	-49289.629	7.738	0.219265	0.235915	0.233788	0.311032	
565000	-49280.308	7.739	0.217128	0.239543	0.230726	0.312603	
566000	-49294.228	7.761	0.226203	0.246568	0.232667	0.294562	
567000	-49286.850	7.789	0.226203	0.246568	0.232667	0.294562	
568000	-49297.603	7.821	0.226203	0.246568	0.232667	0.294562	
569000	-49278.076	7.829	0.220688	0.238199	0.236458	0.304656	
570000	-49281.211	7.785	0.223468	0.237010	0.234937	0.304585	
571000	-49274.894	7.783	0.223468	0.237010	0.234937	0.304585	
572000	-49254.558	7.844	0.223468	0.237010	0.234937	0.304585	
573000	-49262.850	7.829	0.223468	0.237010	0.234937	0.304585	
574000	-49218.305	7.785	0.226944	0.238200	0.233139	0.301717	
575000	-49214.500	7.786	0.226944	0.238200	0.233139	0.301717	
576000	-49212.349	7.780	0.226944	0.238200	0.233139	0.301717	
577000	-49209.200	7.797	0.226944	0.238200	0.233139	0.301717	
578000	-49180.770	7.794	0.226944	0.238200	0.233139	0.301717	
579000	-49161.212	7.797	0.226944	0.238200	0.233139	0.301717	
580000	-49171.525	7.756	0.226944	0.238200	0.233139	0.301717	
581000	-49175.200	7.819	0.232256	0.233345	0.223643	0.310756	
582000	-49160.930	7.832	0.235526	0.235478	0.231043	0.297952	
583000	-49160.134	7.778	0.235526	0.235478	0.231043	0.297952	
584000	-49201.776	7.804	0.225853	0.246134	0.226345	0.301669	
585000	-49187.018	7.748	0.222752	0.238473	0.237103	0.301671	
586000	-49190.234	7.736	0.222752	0.238473	0.237103	0.301671	
587000	-49186.936	7.676	0.222752	0.238473	0.237103	0.301671	
588000	-49185.100	7.635	0.225603	0.241044	0.233341	0.300011	
589000	-49172.832	7.611	0.225603	0.241044	0.233341	0.300011	
590000	-49156.955	7.577	0.225603	0.241044	0.233341	0.300011	
591000	-49156.213	7.561	0.214181	0.240753	0.237860	0.307206	
592000	-49165.738	7.584	0.243051	0.237270	0.218382	0.301298	
593000	-49169.421	7.690	0.231278	0.242153	0.231238	0.295331	
594000	-49146.021	7.661	0.231278	0.242153	0.231238	0.295331	
595000	-49142.902	7.681	0.231278	0.242153	0.231238	0.295331	
596000	-49151.251	7.711	0.222877	0.240186	0.235701	0.301235	
597000	-49163.271	7.708	0.222877	0.240186	0.235701	0.301235	
598000	-49167.031	7.689	0.227245	0.243351	0.229323	0.300082	
599000	-49165.323	7.639	0.227245	0.243351	0.229323	0.300082	
600000	-49143.995	7.610	0.221306	0.241534	0.228012	0.309148	
601000	-49143.253	7.654	0.221062	0.235157	0.238485	0.305296	
602000	-49147.248	7.654	0.221062	0.235157	0.238485	0.305296	
603000	-49141.420	7.702	0.221062	0.235157	0.238485	0.305296	
604000	-49136.756	7.640	0.232741	0.237878	0.236859	0.292521	
605000	-49138.422	7.706	0.232741	0.237878	0.236859	0.292521	
606000	-49128.416	7.672	0.225999	0.245819	0.225397	0.302786	
607000	-49121.994	7.683	0.225882	0.241606	0.229948	0.302564	
608000	-49131.785	7.687	0.225882	0.241606	0.229948	0.302564	
609000	-49141.905	7.703	0.225882	0.241606	0.229948	0.302564	
610000	-49140.934	7.661	0.225180	0.239445	0.236731	0.298644	
611000	-49133.595	7.660	0.221888	0.244488	0.229607	0.304017	
612000	-49154.109	7.727	0.221888	0.244488	0.229607	0.304017	
613000	-49150.621	7.722	0.225026	0.239704	0.233603	0.301667	
614000	-49170.638	7.756	0.225026	0.239704	0.233603	0.301667	
615000	-49168.383	7.783	0.225026	0.239704	0.233603	0.301667	
616000	-49172.661	7.817	0.225026	0.239704	0.233603	0.301667	
617000	-49167.793	7.851	0.225026	0.239704	0.233603	0.301667	
618000	-49164.171	7.914	0.225026	0.239704	0.233603	0.301667	
619000	-49189.503	7.943	0.225026	0.239704	0.233603	0.301667	
620000	-49186.051	7.917	0.225026	0.239704	0.233603	0.301667	
621000	-49189.366	7.855	0.225026	0.239704	0.233603	0.301667	
622000	-49164.968	7.817	0.225026	0.239704	0.233603	0.301667	
623000	-49170.127	7.820	0.225026	0.239704	0.233603	0.301667	
624000	-49189.254	7.846	0.225026	0.239704	0.233603	0.301667	
625000	-49202.143	7.865	0.220037	0.236877	0.238152	0.304934	
626000	-49224.010	7.863	0.220037	0.236877	0.238152	0.304934	
627000	-49225.564	7.849	0.220037	0.236877	0.238152	0.304934	
628000	-49219.602	7.875	0.222989	0.236878	0.239415	0.300718	
629000	-49218.683	7.870	0.229219	0.241061	0.239217	0.290502	
630000	-49214.582	7.911	0.229219	0.241061	0.239217	0.290502	
631000	-49191.443	7.928	0.228553	0.241276	0.232282	0.297888	
632000	-49136.399	7.771	0.228553	0.241276	0.232282	0.297888	
633000	-49112.782	7.697	0.228553	0.241276	0.232282	0.297888	
634000	-49125.125	7.751	0.228553	0.241276	0.232282	0.297888	
635000	-49124.504	7.750	0.228553	0.241276	0.232282	0.297888	
636000	-49119.396	7.712	0.228553	0.241276	0.232282	0.297888	
637000	-49116.576	7.703	0.228553	0.241276	0.232282	0.297888	
638000	-49086.126	7.783	0.228553	0.241276	0.232282	0.297888	
639000	-49087.402	7.802	0.228553	0.241276	0.232282	0.297888	
640000	-49053.640	7.868	0.228553	0.241276	0.232282	0.297888	
641000	-49061.988	7.875	0.228553	0.241276	0.232282	0.297888	
642000	-49063.472	7.845	0.228553	0.241276	0.232282	0.297888	
643000	-49065.688	7.876	0.228553	0.241276	0.232282	0.297888	
644000	-49048.019	7.862	0.228553	0.241276	0.232282	0.297888	
645000	-49043.483	7.855	0.228553	0.241276	0.232282	0.297888	
646000	-49039.578	7.790	0.228553	0.241276	0.232282	0.297888	
647000	-49046.759	7.850	0.228553	0.241276	0.232282	0.297888	
648000	-49030.842	7.796	0.232894	0.243578	0.227687	0.295841	
649000	-49020.999	7.783	0.223373	0.245439	0.233627	0.297562	
650000	-49014.943	7.776	0.228231	0.244830	0.232166	0.294773	
651000	-48998.159	7.779	0.223415	0.240990	0.239188	0.296407	
652000	-49004.014	7.748	0.223415	0.240990	0.239188	0.296407	
653000	-49002.227	7.727	0.223415	0.240990	0.239188	0.296407	
654000	-49010.848	7.719	0.223415	0.240990	0.239188	0.296407	
655000	-49009.499	7.690	0.223415	0.240990	0.239188	0.296407	
656000	-49037.935	7.750	0.223415	0.240990	0.239188	0.296407	
657000	-49023.127	7.751	0.230050	0.245802	0.237979	0.286169	
658000	-49034.000	7.752	0.234236	0.239133	0.233303	0.293328	
659000	-49028.412	7.789	0.234236	0.239133	0.233303	0.293328	
660000	-49009.707	7.759	0.234236	0.239133	0.233303	0.293328	
661000	-48993.191	7.796	0.234236	0.239133	0.233303	0.293328	
662000	-48997.271	7.801	0.227906	0.243191	0.234586	0.294317	
663000	-48986.463	7.793	0.228684	0.238074	0.235048	0.298194	
664000	-48988.707	7.766	0.228347	0.246183	0.237219	0.288251	
665000	-48979.132	7.724	0.221474	0.250883	0.235514	0.292129	
666000	-48967.595	7.782	0.232516	0.241469	0.227935	0.298080	
667000	-48972.288	7.752	0.232516	0.241469	0.227935	0.298080	
668000	-48970.179	7.786	0.227298	0.251990	0.226227	0.294485	
669000	-48944.950	7.735	0.227758	0.236841	0.229736	0.305665	
670000	-48968.043	7.752	0.230745	0.238502	0.236775	0.293978	
671000	-48979.262	7.789	0.224475	0.245688	0.234125	0.295713	
672000	-48953.907	7.768	0.222952	0.243027	0.237360	0.296662	
673000	-48961.222	7.772	0.217287	0.244574	0.239737	0.298402	
674000	-48961.944	7.769	0.233037	0.234208	0.240798	0.291957	
675000	-48952.854	7.759	0.223296	0.248293	0.228478	0.299933	
676000	-48936.017	7.769	0.224104	0.239286	0.237286	0.299323	
677000	-48936.588	7.705	0.224104	0.239286	0.237286	0.299323	
678000	-48948.386	7.749	0.224104	0.239286	0.237286	0.299323	
679000	-48934.924	7.714	0.224104	0.239286	0.237286	0.299323	
680000	-48943.875	7.675	0.230890	0.251280	0.232898	0.284932	
681000	-48937.872	7.644	0.230890	0.251280	0.232898	0.284932	
682000	-48916.054	7.630	0.229100	0.242133	0.232046	0.296721	
683000	-48910.094	7.529	0.229100	0.242133	0.232046	0.296721	
684000	-48914.221	7.523	0.229100	0.242133	0.232046	0.296721	
685000	-48920.879	7.539	0.229100	0.242133	0.232046	0.296721	
686000	-48922.600	7.540	0.229100	0.242133	0.232046	0.296721	
687000	-48896.078	7.545	0.229100	0.242133	0.232046	0.296721	
688000	-48871.434	7.510	0.229100	0.242133	0.232046	0.296721	
689000	-48880.089	7.499	0.229100	0.242133	0.232046	0.296721	
690000	-48877.371	7.535	0.229100	0.242133	0.232046	0.296721	
691000	-48875.174	7.549	0.227530	0.248296	0.229410	0.294764	
692000	-48873.688	7.526	0.221639	0.243478	0.247114	0.287769	
693000	-48877.324	7.487	0.228142	0.251578	0.229653	0.290627	
694000	-48894.922	7.445	0.221656	0.244951	0.244471	0.288922	
695000	-48909.349	7.512	0.221656	0.244951	0.244471	0.288922	
696000	-48905.044	7.972	0.227859	0.234062	0.230590	0.307489	
697000	-48840.858	7.995	0.227859	0.234062	0.230590	0.307489	
698000	-48763.723	7.976	0.227859	0.234062	0.230590	0.307489	
699000	-48722.850	8.031	0.227859	0.234062	0.230590	0.307489	
700000	-48679.858	7.957	0.227093	0.244708	0.229839	0.298360	
701000	-48657.931	7.908	0.222359	0.244645	0.237208	0.295787	
702000	-48644.882	7.941	0.228414	0.241836	0.234873	0.294876	
703000	-48611.832	7.926	0.228414	0.241836	0.234873	0.294876	
704000	-48616.773	7.909	0.228414	0.241836	0.234873	0.294876	
705000	-48603.093	7.887	0.228414	0.241836	0.234873	0.294876	
706000	-48596.129	7.875	0.228414	0.241836	0.234873	0.294876	
707000	-48571.338	7.820	0.228414	0.241836	0.234873	0.294876	
708000	-48237.122	7.764	0.228414	0.241836	0.234873	0.294876	
709000	-48142.851	7.766	0.228414	0.241836	0.234873	0.294876	
710000	-48092.348	7.753	0.228414	0.241836	0.234873	0.294876	
711000	-48091.406	7.719	0.228414	0.241836	0.234873	0.294876	
712000	-48085.683	7.806	0.223371	0.244213	0.237048	0.295368	
713000	-48072.393	7.785	0.223371	0.244213	0.237048	0.295368	
714000	-48048.391	7.794	0.223371	0.244213	0.237048	0.295368	
715000	-48011.207	7.713	0.224077	0.239766	0.237584	0.298573	
716000	-47984.890	7.699	0.224077	0.239766	0.237584	0.298573	
717000	-47950.413	7.683	0.224077	0.239766	0.237584	0.298573	
718000	-47907.999	7.685	0.224077	0.239766	0.237584	0.298573	
719000	-47897.975	7.737	0.224077	0.239766	0.237584	0.298573	
720000	-47882.132	7.726	0.224077	0.239766	0.237584	0.298573	
721000	-47881.425	7.709	0.224077	0.239766	0.237584	0.298573	
722000	-47856.465	7.680	0.224077	0.239766	0.237584	0.298573	
723000	-47856.528	7.734	0.224077	0.239766	0.237584	0.298573	
724000	-47857.831	7.709	0.223047	0.245473	0.236866	0.294615	
725000	-47839.810	7.720	0.223047	0.245473	0.236866	0.294615	
726000	-47866.613	7.722	0.223047	0.245473	0.236866	0.294615	
727000	-47853.618	7.687	0.226872	0.244424	0.231675	0.297030	
728000	-47842.759	7.630	0.226872	0.244424	0.231675	0.297030	
729000	-47812.278	7.629	0.223752	0.236766	0.242524	0.296958	
730000	-47795.694	7.547	0.231113	0.240522	0.237087	0.291278	
731000	-47787.733	7.545	0.231113	0.240522	0.237087	0.291278	
732000	-47788.738	7.579	0.220302	0.239681	0.247039	0.292979	
733000	-47777.353	7.570	0.220302	0.239681	0.247039	0.292979	
734000	-47642.105	7.607	0.220302	0.239681	0.247039	0.292979	
735000	-47605.385	7.607	0.220302	0.239681	0.247039	0.292979	
736000	-47605.062	7.599	0.224703	0.241005	0.238750	0.295542	
737000	-47565.944	7.589	0.228099	0.242914	0.238579	0.290408	
738000	-47589.017	7.582	0.230551	0.244204	0.239117	0.286128	
739000	-47510.453	7.525	0.230551	0.244204	0.239117	0.286128	
740000	-47489.566	7.503	0.224582	0.245018	0.229810	0.300590	
741000	-47463.976	7.429	0.224582	0.245018	0.229810	0.300590	
742000	-47460.401	7.479	0.217423	0.244229	0.241674	0.296674	
743000	-47443.929	7.469	0.217423	0.244229	0.241674	0.296674	
744000	-47440.206	7.524	0.227011	0.237474	0.242138	0.293377	
745000	-47430.555	7.549	0.218391	0.245051	0.239688	0.296869	
746000	-47412.067	7.489	0.226531	0.247436	0.236215	0.289817	
747000	-47422.187	7.404	0.226531	0.247436	0.236215	0.289817	
748000	-47399.311	7.414	0.220733	0.247728	0.242384	0.289156	
749000	-47403.175	7.413	0.221800	0.242048	0.241614	0.294539	
750000	-47387.707	7.409	0.222504	0.242290	0.240600	0.294606	
751000	-47377.731	7.397	0.222504	0.242290	0.240600	0.294606	
752000	-47372.939	7.397	0.222504	0.242290	0.240600	0.294606	
753000	-47388.952	7.388	0.222504	0.242290	0.240600	0.294606	
754000	-47331.866	7.393	0.222504	0.242290	0.240600	0.294606	
755000	-47339.557	7.392	0.225997	0.230313	0.245524	0.298166	
756000	-47310.600	7.382	0.216858	0.237384	0.251742	0.294015	
757000	-47299.686	7.393	0.225440	0.250457	0.240492	0.283611	
758000	-47274.293	7.391	0.225440	0.250457	0.240492	0.283611	
759000	-47282.952	7.384	0.216755	0.247201	0.240046	0.295998	
760000	-47272.945	7.370	0.216755	0.247201	0.240046	0.295998	
761000	-47261.591	7.363	0.216755	0.247201	0.240046	0.295998	
762000	-47253.429	7.318	0.232644	0.242084	0.236133	0.289139	
763000	-47237.997	7.281	0.225860	0.251693	0.236456	0.285992	
764000	-47226.475	7.259	0.220844	0.250427	0.235380	0.293349	
765000	-47237.977	7.275	0.223915	0.231572	0.243399	0.301114	
766000	-47229.033	7.339	0.217816	0.242961	0.241017	0.298206	
767000	-47236.362	7.382	0.217816	0.242961	0.241017	0.298206	
768000	-47257.441	7.365	0.223587	0.246816	0.249572	0.280025	
769000	-47271.151	7.415	0.220584	0.254068	0.238561	0.286787	
770000	-47262.414	7.361	0.220584	0.254068	0.238561	0.286787	
771000	-47261.338	7.323	0.220584	0.254068	0.238561	0.286787	
772000	-47261.167	7.306	0.234168	0.245338	0.232458	0.288037	
773000	-47244.263	7.361	0.217082	0.240448	0.240000	0.302471	
774000	-47239.642	7.319	0.218242	0.255118	0.242849	0.283791	
775000	-47253.952	7.303	0.227927	0.236287	0.234193	0.301593	
776000	-47242.458	7.320	0.231601	0.240795	0.242902	0.284702	
777000	-47255.999	7.247	0.231601	0.240795	0.242902	0.284702	
778000	-47258.108	7.222	0.209976	0.251935	0.245412	0.292677	
779000	-47238.543	7.254	0.220519	0.245275	0.242148	0.292058	
780000	-47247.124	7.298	0.227718	0.248317	0.232747	0.291218	
781000	-47233.134	7.324	0.224106	0.249468	0.234427	0.291998	
782000	-47247.881	7.322	0.224106	0.249468	0.234427	0.291998	
783000	-47268.554	7.298	0.224106	0.249468	0.234427	0.291998	
784000	-47248.963	7.258	0.230560	0.250552	0.226968	0.291919	
785000	-47262.942	7.276	0.218370	0.252099	0.233666	0.295864	
786000	-47266.675	7.266	0.218370	0.252099	0.233666	0.295864	
787000	-47276.768	7.251	0.232628	0.234512	0.228746	0.304114	
788000	-47231.259	7.122	0.231712	0.242647	0.237028	0.288614	
789000	-47228.053	7.138	0.231712	0.242647	0.237028	0.288614	
790000	-47247.421	7.194	0.226498	0.238822	0.243543	0.291138	
791000	-47251.374	7.219	0.226498	0.238822	0.243543	0.291138	
792000	-47244.406	7.216	0.226498	0.238822	0.243543	0.291138	
793000	-47227.787	7.261	0.218628	0.248844	0.238095	0.294433	
794000	-47244.404	7.245	0.225207	0.239363	0.243861	0.291569	
795000	-47226.556	7.266	0.225207	0.239363	0.243861	0.291569	
796000	-47222.700	7.256	0.225207	0.239363	0.243861	0.291569	
797000	-47228.549	7.266	0.227100	0.244548	0.231501	0.296851	
798000	-47211.472	7.220	0.222917	0.244859	0.235706	0.296518	
799000	-47228.301	7.211	0.222917	0.244859	0.235706	0.296518	
800000	-47243.619	7.237	0.222917	0.244859	0.235706	0.296518	
801000	-47210.173	7.176	0.233690	0.243675	0.233573	0.289062	
802000	-47212.888	7.182	0.228251	0.245360	0.228673	0.297716	
803000	-47224.400	7.227	0.228753	0.238474	0.241812	0.290961	
804000	-47211.642	7.200	0.228753	0.238474	0.241812	0.290961	
805000	-47209.165	7.189	0.228753	0.238474	0.241812	0.290961	
806000	-47210.270	7.202	0.218778	0.243319	0.241041	0.296862	
807000	-47211.707	7.226	0.220036	0.246859	0.243294	0.289811	
808000	-47232.800	7.261	0.220036	0.246859	0.243294	0.289811	
809000	-47239.712	7.260	0.221712	0.254364	0.236138	0.287786	
810000	-47243.432	7.306	0.217511	0.239971	0.248247	0.294271	
811000	-47233.597	7.253	0.232376	0.244301	0.238651	0.284672	
812000	-47253.668	7.279	0.232376	0.244301	0.238651	0.284672	
813000	-47243.818	7.283	0.232376	0.244301	0.238651	0.284672	
814000	-47247.053	7.284	0.225280	0.245054	0.240071	0.289595	
815000	-47250.255	7.253	0.225280	0.245054	0.240071	0.289595	
816000	-47235.131	7.200	0.225280	0.245054	0.240071	0.289595	
817000	-47234.768	7.292	0.223432	0.249920	0.241256	0.285392	
818000	-47234.116	7.288	0.223432	0.249920	0.241256	0.285392	
819000	-47241.725	7.303	0.223432	0.249920	0.241256	0.285392	
820000	-47235.290	7.344	0.225819	0.246416	0.239199	0.288566	
821000	-47217.420	7.307	0.222972	0.243549	0.233265	0.300214	
822000	-47213.064	7.310	0.219726	0.247068	0.242318	0.290888	
823000	-47224.573	7.294	0.222844	0.241861	0.239159	0.296136	
824000	-47212.642	7.310	0.222844	0.241861	0.239159	0.296136	
825000	-47205.214	7.261	0.222844	0.241861	0.239159	0.296136	
826000	-47216.454	7.257	0.222844	0.241861	0.239159	0.296136	
827000	-47228.795	7.372	0.229398	0.233670	0.238839	0.298093	
828000	-47226.455	7.420	0.229398	0.233670	0.238839	0.298093	
829000	-47228.261	7.449	0.234720	0.233827	0.235555	0.295899	
830000	-47210.260	7.442	0.219679	0.244313	0.240394	0.295614	
831000	-47194.005	7.444	0.224030	0.249554	0.232699	0.293716	
832000	-47169.514	7.399	0.224030	0.249554	0.232699	0.293716	
833000	-47173.011	7.404	0.226445	0.248573	0.233393	0.291589	
834000	-47178.478	7.386	0.226445	0.248573	0.233393	0.291589	
835000	-47197.496	7.401	0.226445	0.248573	0.233393	0.291589	
836000	-47184.596	7.349	0.226445	0.248573	0.233393	0.291589	
837000	-47196.955	7.355	0.225202	0.240063	0.248127	0.286609	
838000	-47183.620	7.354	0.225202	0.240063	0.248127	0.286609	
839000	-47171.434	7.319	0.227187	0.250337	0.227723	0.294753	
840000	-47193.675	7.302	0.227187	0.250337	0.227723	0.294753	
841000	-47202.553	7.308	0.236259	0.236720	0.239339	0.287682	
842000	-47185.594	7.342	0.226305	0.242743	0.234016	0.296936	
843000	-47185.071	7.368	0.226305	0.242743	0.234016	0.296936	
844000	-47188.408	7.405	0.226305	0.242743	0.234016	0.296936	
845000	-47196.722	7.408	0.230816	0.251614	0.230886	0.286684	
846000	-47217.107	7.455	0.228017	0.237025	0.236667	0.298291	
847000	-47198.995	7.400	0.226164	0.243048	0.243718	0.287071	
848000	-47188.865	7.368	0.226164	0.243048	0.243718	0.287071	
849000	-47184.715	7.356	0.226164	0.243048	0.243718	0.287071	
850000	-47179.172	7.337	0.226164	0.243048	0.243718	0.287071	
851000	-47190.303	7.365	0.226164	0.243048	0.243718	0.287071	
852000	-47198.952	7.382	0.217808	0.242533	0.237979	0.301680	
853000	-47182.982	7.311	0.217808	0.242533	0.237979	0.301680	
854000	-47176.281	7.263	0.217808	0.242533	0.237979	0.301680	
855000	-47168.543	7.310	0.217808	0.242533	0.237979	0.301680	
856000	-47183.228	7.270	0.219507	0.242062	0.234423	0.304008	
857000	-47185.469	7.271	0.230478	0.236519	0.245517	0.287486	
858000	-47191.965	7.325	0.223796	0.252476	0.239679	0.284049	
859000	-47188.756	7.302	0.227695	0.244196	0.230251	0.297857	
860000	-47198.284	7.359	0.223278	0.240694	0.241141	0.294887	
861000	-47200.332	7.361	0.223278	0.240694	0.241141	0.294887	
862000	-47207.851	7.392	0.223278	0.240694	0.241141	0.294887	
863000	-47200.639	7.347	0.227330	0.244750	0.238315	0.289606	
864000	-47176.869	7.344	0.227330	0.244750	0.238315	0.289606	
865000	-47207.720	7.388	0.227330	0.244750	0.238315	0.289606	
866000	-47219.796	7.453	0.227330	0.244750	0.238315	0.289606	
867000	-47211.488	7.441	0.227330	0.244750	0.238315	0.289606	
868000	-47189.834	7.431	0.220411	0.240727	0.239338	0.299523	
869000	-47205.713	7.386	0.220411	0.240727	0.239338	0.299523	
870000	-47196.061	7.365	0.220411	0.240727	0.239338	0.299523	
871000	-47181.846	7.373	0.225233	0.251325	0.233605	0.289838	
872000	-47182.010	7.356	0.230025	0.240388	0.235517	0.294069	
873000	-47179.142	7.412	0.224711	0.239422	0.237573	0.298294	
874000	-47191.147	7.379	0.224711	0.239422	0.237573	0.298294	
875000	-47179.685	7.377	0.224711	0.239422	0.237573	0.298294	
876000	-47178.774	7.334	0.228705	0.242922	0.243755	0.284618	
877000	-47194.073	7.367	0.228705	0.242922	0.243755	0.284618	
878000	-47179.495	7.308	0.224944	0.240878	0.246161	0.288016	
879000	-47192.182	7.323	0.224944	0.240878	0.246161	0.288016	
880000	-47202.630	7.299	0.224944	0.240878	0.246161	0.288016	
881000	-47199.291	7.312	0.224944	0.240878	0.246161	0.288016	
882000	-47209.639	7.380	0.224944	0.240878	0.246161	0.288016	
883000	-47213.728	7.354	0.224944	0.240878	0.246161	0.288016	
884000	-47191.884	7.363	0.230100	0.240234	0.238189	0.291476	
885000	-47189.124	7.335	0.227809	0.243028	0.238511	0.290651	
886000	-47182.014	7.326	0.221567	0.251547	0.243070	0.283815	
887000	-47177.186	7.313	0.221567	0.251547	0.243070	0.283815	
888000	-47172.223	7.296	0.221567	0.251547	0.243070	0.283815	
889000	-47168.782	7.357	0.221567	0.251547	0.243070	0.283815	
890000	-47179.107	7.331	0.217207	0.242449	0.239679	0.300665	
891000	-47186.072	7.350	0.217207	0.242449	0.239679	0.300665	
892000	-47165.384	7.343	0.225750	0.237922	0.238157	0.298170	
893000	-47170.110	7.348	0.225750	0.237922	0.238157	0.298170	
894000	-47186.845	7.343	0.228036	0.246857	0.240137	0.284969	
895000	-47169.507	7.392	0.220196	0.242101	0.239894	0.297809	
896000	-47162.407	7.380	0.223606	0.242463	0.241142	0.292789	
897000	-47188.598	7.456	0.223606	0.242463	0.241142	0.292789	
898000	-47161.138	7.454	0.223606	0.242463	0.241142	0.292789	
899000	-47165.066	7.410	0.223606	0.242463	0.241142	0.292789	
900000	-47158.145	7.386	0.223606	0.242463	0.241142	0.292789	
901000	-47156.285	7.476	0.223606	0.242463	0.241142	0.292789	
902000	-47155.265	7.489	0.223606	0.242463	0.241142	0.292789	
903000	-47142.350	7.439	0.216966	0.239505	0.242291	0.301237	
904000	-47143.373	7.417	0.217260	0.257422	0.240705	0.284613	
905000	-47135.426	7.440	0.217260	0.257422	0.240705	0.284613	
906000	-47158.709	7.542	0.219080	0.252948	0.246542	0.281430	
907000	-47142.124	7.519	0.219883	0.241469	0.241197	0.297450	
908000	-47133.732	7.518	0.219883	0.241469	0.241197	0.297450	
909000	-47116.841	7.492	0.222581	0.251784	0.235746	0.289889	
910000	-47126.942	7.479	0.222080	0.246132	0.239053	0.292735	
911000	-47140.958	7.442	0.222080	0.246132	0.239053	0.292735	
912000	-47154.098	7.445	0.222080	0.246132	0.239053	0.292735	
913000	-47155.548	7.372	0.222080	0.246132	0.239053	0.292735	
914000	-47155.482	7.360	0.224906	0.237529	0.239004	0.298561	
915000	-47156.055	7.348	0.231828	0.238448	0.236641	0.293083	
916000	-47167.720	7.393	0.223898	0.245150	0.240099	0.290854	
917000	-47176.315	7.380	0.223898	0.245150	0.240099	0.290854	
918000	-47168.892	7.354	0.223898	0.245150	0.240099	0.290854	
919000	-47177.655	7.324	0.223898	0.245150	0.240099	0.290854	
920000	-47202.604	7.374	0.223898	0.245150	0.240099	0.290854	
921000	-47206.766	7.369	0.223898	0.245150	0.240099	0.290854	
922000	-47218.929	7.363	0.223898	0.245150	0.240099	0.290854	
923000	-47207.736	7.307	0.223898	0.245150	0.240099	0.290854	
924000	-47185.855	7.337	0.223898	0.245150	0.240099	0.290854	
925000	-47175.777	7.341	0.221832	0.244564	0.239243	0.294362	
926000	-47184.172	7.342	0.219661	0.246500	0.238516	0.295323	
927000	-47178.403	7.346	0.219661	0.246500	0.238516	0.295323	
928000	-47187.976	7.384	0.226922	0.244483	0.234456	0.294139	
929000	-47178.236	7.428	0.226376	0.248015	0.237803	0.287806	
930000	-47154.138	7.403	0.231191	0.240805	0.236284	0.291720	
931000	-47173.920	7.429	0.226435	0.244181	0.237527	0.291857	
932000	-47158.499	7.452	0.226435	0.244181	0.237527	0.291857	
933000	-47168.648	7.402	0.226435	0.244181	0.237527	0.291857	
934000	-47170.020	7.359	0.226435	0.244181	0.237527	0.291857	
935000	-47176.951	7.355	0.226435	0.244181	0.237527	0.291857	
936000	-47169.867	7.405	0.226435	0.244181	0.237527	0.291857	
937000	-47167.456	7.422	0.226435	0.244181	0.237527	0.291857	
938000	-47182.446	7.429	0.227303	0.244389	0.234146	0.294163	
939000	-47174.738	7.398	0.227303	0.244389	0.234146	0.294163	
940000	-47170.445	7.391	0.227303	0.244389	0.234146	0.294163	
941000	-47172.320	7.356	0.227303	0.244389	0.234146	0.294163	
942000	-47166.369	7.327	0.220347	0.246133	0.244549	0.288970	
943000	-47193.868	7.308	0.226656	0.235386	0.249145	0.288812	
944000	-47194.105	7.281	0.216462	0.247616	0.249716	0.286206	
945000	-47186.761	7.259	0.216462	0.247616	0.249716	0.286206	
946000	-47180.408	7.245	0.219294	0.242139	0.241297	0.297270	
947000	-47184.605	7.243	0.219294	0.242139	0.241297	0.297270	
948000	-47181.552	7.234	0.219294	0.242139	0.241297	0.297270	
949000	-47171.193	7.228	0.219294	0.242139	0.241297	0.297270	
950000	-47195.204	7.202	0.219294	0.242139	0.241297	0.297270	
951000	-47200.894	7.193	0.219294	0.242139	0.241297	0.297270	
952000	-47192.948	7.123	0.224829	0.241706	0.245751	0.287714	
953000	-47195.635	7.179	0.220884	0.243275	0.238470	0.297372	
954000	-47199.041	7.158	0.220884	0.243275	0.238470	0.297372	
955000	-47207.173	7.137	0.220884	0.243275	0.238470	0.297372	
956000	-47211.673	7.242	0.222155	0.245337	0.243488	0.289021	
957000	-47208.294	7.309	0.222155	0.245337	0.243488	0.289021	
958000	-47207.995	7.270	0.232578	0.232350	0.233559	0.301513	
959000	-47214.538	7.247	0.216251	0.247200	0.231537	0.305012	
960000	-47188.102	7.222	0.231109	0.234673	0.238924	0.295295	
961000	-47184.255	7.235	0.231109	0.234673	0.238924	0.295295	
962000	-47191.540	7.238	0.226155	0.239737	0.244120	0.289988	
963000	-47204.959	7.249	0.226155	0.239737	0.244120	0.289988	
964000	-47233.607	7.343	0.226155	0.239737	0.244120	0.289988	
965000	-47218.344	7.389	0.226155	0.239737	0.244120	0.289988	
966000	-47177.272	7.367	0.223867	0.246882	0.237442	0.291809	
967000	-47154.948	7.310	0.224050	0.239433	0.246264	0.290253	
968000	-47148.151	7.302	0.224050	0.239433	0.246264	0.290253	
969000	-47149.323	7.324	0.220920	0.246132	0.245192	0.287756	
970000	-47135.721	7.301	0.224347	0.246253	0.237951	0.291449	
971000	-47131.961	7.245	0.224347	0.246253	0.237951	0.291449	
972000	-47125.253	7.232	0.224347	0.246253	0.237951	0.291449	
973000	-47133.659	7.220	0.224347	0.246253	0.237951	0.291449	
974000	-47149.076	7.213	0.224347	0.246253	0.237951	0.291449	
975000	-47155.786	7.198	0.224347	0.246253	0.237951	0.291449	
976000	-47171.984	7.181	0.220595	0.242560	0.243559	0.293286	
977000	-47173.030	7.138	0.223151	0.243440	0.240859	0.292551	
978000	-47191.588	7.172	0.223151	0.243440	0.240859	0.292551	
979000	-47201.525	7.180	0.217483	0.244427	0.238155	0.299934	
980000	-47202.978	7.164	0.218528	0.246247	0.236530	0.298695	
981000	-47197.655	7.185	0.230987	0.237616	0.245574	0.285823	
982000	-47204.449	7.197	0.225634	0.236432	0.241452	0.296482	
983000	-47209.216	7.186	0.210904	0.244891	0.249368	0.294837	
984000	-47209.522	7.166	0.220065	0.253018	0.239466	0.287451	
985000	-47203.821	7.160	0.229590	0.239559	0.234923	0.295928	
986000	-47181.541	7.179	0.217437	0.246063	0.246147	0.290353	
987000	-47173.889	7.173	0.211646	0.246996	0.246169	0.295190	
988000	-47146.866	7.141	0.226836	0.250976	0.238726	0.283462	
989000	-47143.518	7.096	0.224978	0.248644	0.243144	0.283234	
990000	-47140.882	7.145	0.224978	0.248644	0.243144	0.283234	
991000	-47160.565	7.201	0.224978	0.248644	0.243144	0.283234	
992000	-47140.465	7.183	0.220048	0.248859	0.236673	0.294420	
993000	-47134.947	7.236	0.229728	0.237714	0.244326	0.288233	
994000	-47135.980	7.236	0.227841	0.244078	0.229445	0.298636	
995000	-47138.146	7.209	0.216953	0.252431	0.238927	0.291689	
996000	-47145.655	7.168	0.228060	0.240743	0.247116	0.284081	
997000	-47107.402	7.120	0.228060	0.240743	0.247116	0.284081	
998000	-47130.934	7.205	0.228060	0.240743	0.247116	0.284081	
999000	-47146.709	7.256	0.219448	0.237464	0.247722	0.295366	
1000000	-47140.670	7.281	0.219670	0.236236	0.242552	0.301542	
