[ID: 7499451737]
Gen	LnL	TL	pi(A)	pi(C)	pi(G)	pi(T)	
1	-337109.810	108.500	0.250000	0.250000	0.250000	0.250000	
1000	-314361.432	104.069	0.230802	0.210443	0.214706	0.344049	
2000	-298291.886	99.517	0.230802	0.210443	0.214706	0.344049	
3000	-283664.109	93.707	0.218480	0.210655	0.226011	0.344855	
4000	-271164.212	90.407	0.220234	0.209411	0.216682	0.353673	
5000	-260539.600	87.311	0.226147	0.209077	0.218994	0.345782	
6000	-250758.813	82.182	0.220234	0.209411	0.216682	0.353673	
7000	-241650.816	79.070	0.215817	0.221880	0.212124	0.350180	
8000	-232625.792	76.025	0.215817	0.221880	0.212124	0.350180	
9000	-224427.057	72.475	0.220234	0.209411	0.216682	0.353673	
10000	-217300.587	68.969	0.209785	0.216255	0.220573	0.353388	
11000	-209788.318	66.062	0.209785	0.216255	0.220573	0.353388	
12000	-202927.022	62.850	0.209785	0.216255	0.220573	0.353388	
13000	-197771.594	60.167	0.209785	0.216255	0.220573	0.353388	
14000	-192997.119	57.814	0.212966	0.216312	0.222350	0.348372	
15000	-189929.316	55.675	0.212966	0.216312	0.222350	0.348372	
16000	-184755.218	53.609	0.210497	0.217743	0.222931	0.348829	
17000	-181178.138	52.658	0.210360	0.226293	0.217931	0.345416	
18000	-176763.288	49.811	0.210497	0.217743	0.222931	0.348829	
19000	-173358.305	49.585	0.210360	0.226293	0.217931	0.345416	
20000	-169827.826	46.958	0.210497	0.217743	0.222931	0.348829	
21000	-166760.183	46.084	0.213737	0.224533	0.218399	0.343331	
22000	-163903.549	44.575	0.213737	0.224533	0.218399	0.343331	
23000	-160281.283	42.918	0.213737	0.224533	0.218399	0.343331	
24000	-156589.232	41.660	0.213737	0.224533	0.218399	0.343331	
25000	-153254.852	40.360	0.211238	0.224314	0.221916	0.342532	
26000	-150349.817	39.237	0.211238	0.224314	0.221916	0.342532	
27000	-147700.007	38.015	0.211238	0.224314	0.221916	0.342532	
28000	-144760.786	37.075	0.211238	0.224314	0.221916	0.342532	
29000	-142920.723	35.773	0.211238	0.224314	0.221916	0.342532	
30000	-140929.021	34.710	0.211238	0.224314	0.221916	0.342532	
31000	-139338.456	33.857	0.209518	0.229454	0.222739	0.338289	
32000	-137539.998	32.829	0.209518	0.229454	0.222739	0.338289	
33000	-136113.226	32.133	0.209518	0.229454	0.222739	0.338289	
34000	-134944.507	31.497	0.208841	0.230697	0.222130	0.338332	
35000	-133244.193	30.925	0.208841	0.230697	0.222130	0.338332	
36000	-131854.880	30.242	0.208841	0.230697	0.222130	0.338332	
37000	-130301.703	29.434	0.205834	0.237717	0.230791	0.325658	
38000	-129050.414	28.612	0.205376	0.232544	0.229985	0.332095	
39000	-128035.422	27.818	0.205376	0.232544	0.229985	0.332095	
40000	-127145.605	27.386	0.199992	0.241792	0.235215	0.323002	
41000	-125943.416	27.950	0.211337	0.234563	0.222992	0.331108	
42000	-124434.121	27.366	0.211337	0.234563	0.222992	0.331108	
43000	-123401.421	26.712	0.211337	0.234563	0.222992	0.331108	
44000	-122035.073	26.248	0.208008	0.237532	0.222402	0.332058	
45000	-120616.646	25.867	0.208008	0.237532	0.222402	0.332058	
46000	-119892.721	25.437	0.208008	0.237532	0.222402	0.332058	
47000	-118922.708	25.046	0.208008	0.237532	0.222402	0.332058	
48000	-118109.644	24.719	0.205968	0.240516	0.225559	0.327957	
49000	-117256.304	24.338	0.205968	0.240516	0.225559	0.327957	
50000	-115803.317	24.123	0.205968	0.240516	0.225559	0.327957	
51000	-115013.323	23.873	0.205968	0.240516	0.225559	0.327957	
52000	-114087.448	23.471	0.205968	0.240516	0.225559	0.327957	
53000	-113170.360	22.944	0.205968	0.240516	0.225559	0.327957	
54000	-112037.878	22.316	0.205968	0.240516	0.225559	0.327957	
55000	-110971.796	22.117	0.209426	0.242199	0.224828	0.323547	
56000	-109978.906	22.005	0.209426	0.242199	0.224828	0.323547	
57000	-109358.249	21.759	0.209426	0.242199	0.224828	0.323547	
58000	-108756.273	21.523	0.209426	0.242199	0.224828	0.323547	
59000	-107683.291	21.144	0.209426	0.242199	0.224828	0.323547	
60000	-107021.226	20.915	0.209426	0.242199	0.224828	0.323547	
61000	-106013.546	20.629	0.209426	0.242199	0.224828	0.323547	
62000	-105106.355	20.402	0.209426	0.242199	0.224828	0.323547	
63000	-104639.494	20.188	0.209426	0.242199	0.224828	0.323547	
64000	-103795.124	20.135	0.209426	0.242199	0.224828	0.323547	
65000	-102847.570	19.914	0.209426	0.242199	0.224828	0.323547	
66000	-101296.970	19.857	0.209426	0.242199	0.224828	0.323547	
67000	-100455.319	19.561	0.208756	0.243257	0.229958	0.318028	
68000	-100062.943	19.639	0.208756	0.243257	0.229958	0.318028	
69000	-99497.273	19.295	0.208756	0.243257	0.229958	0.318028	
70000	-99002.985	19.089	0.208756	0.243257	0.229958	0.318028	
71000	-98443.183	18.901	0.208756	0.243257	0.229958	0.318028	
72000	-98034.399	18.765	0.208756	0.243257	0.229958	0.318028	
73000	-97566.356	18.681	0.208688	0.242114	0.229939	0.319258	
74000	-97309.278	18.475	0.208688	0.242114	0.229939	0.319258	
75000	-96818.820	18.222	0.213114	0.237302	0.228660	0.320923	
76000	-96341.923	17.981	0.213114	0.237302	0.228660	0.320923	
77000	-95653.027	17.713	0.213114	0.237302	0.228660	0.320923	
78000	-94921.080	17.564	0.213114	0.237302	0.228660	0.320923	
79000	-94586.694	17.403	0.211521	0.248206	0.225657	0.314615	
80000	-94009.948	17.236	0.211521	0.248206	0.225657	0.314615	
81000	-93794.343	17.021	0.211521	0.248206	0.225657	0.314615	
82000	-93328.475	16.945	0.211588	0.244920	0.224278	0.319214	
83000	-93102.635	16.736	0.211588	0.244920	0.224278	0.319214	
84000	-92959.726	16.689	0.211959	0.248237	0.224783	0.315021	
85000	-92659.568	16.648	0.216963	0.243421	0.230333	0.309283	
86000	-92163.262	16.332	0.216963	0.243421	0.230333	0.309283	
87000	-91925.930	16.361	0.216963	0.243421	0.230333	0.309283	
88000	-91578.821	16.470	0.216963	0.243421	0.230333	0.309283	
89000	-91282.743	16.420	0.216963	0.243421	0.230333	0.309283	
90000	-90800.685	16.206	0.213967	0.244096	0.226819	0.315118	
91000	-90284.283	16.029	0.213967	0.244096	0.226819	0.315118	
92000	-90156.384	15.985	0.217302	0.244170	0.227341	0.311187	
93000	-89518.111	15.873	0.212973	0.247210	0.223190	0.316626	
94000	-89264.511	15.761	0.212973	0.247210	0.223190	0.316626	
95000	-88898.610	15.734	0.218906	0.242468	0.232600	0.306025	
96000	-87945.357	15.481	0.213688	0.248913	0.230426	0.306973	
97000	-87252.258	15.346	0.213688	0.248913	0.230426	0.306973	
98000	-86956.660	15.340	0.220770	0.245380	0.231977	0.301873	
99000	-86772.355	15.236	0.220770	0.245380	0.231977	0.301873	
100000	-85974.265	15.106	0.220770	0.245380	0.231977	0.301873	
101000	-85712.025	15.188	0.220770	0.245380	0.231977	0.301873	
102000	-85488.756	15.159	0.220770	0.245380	0.231977	0.301873	
103000	-85196.437	15.051	0.208136	0.243851	0.235985	0.312029	
104000	-84824.647	14.809	0.209474	0.245656	0.234531	0.310339	
105000	-84374.875	14.693	0.209474	0.245656	0.234531	0.310339	
106000	-83114.037	14.512	0.209474	0.245656	0.234531	0.310339	
107000	-82619.968	14.280	0.209474	0.245656	0.234531	0.310339	
108000	-81600.216	14.275	0.209820	0.237976	0.224797	0.327408	
109000	-81130.244	14.223	0.209820	0.237976	0.224797	0.327408	
110000	-80826.924	14.051	0.219959	0.248585	0.223138	0.308317	
111000	-80436.906	13.886	0.221309	0.246147	0.224775	0.307769	
112000	-79409.783	14.025	0.221309	0.246147	0.224775	0.307769	
113000	-78271.240	13.894	0.217991	0.238138	0.231154	0.312717	
114000	-77957.405	13.947	0.225834	0.233453	0.220824	0.319889	
115000	-77483.176	13.744	0.225834	0.233453	0.220824	0.319889	
116000	-76732.459	13.717	0.219632	0.230550	0.223720	0.326097	
117000	-76313.454	13.560	0.209780	0.242694	0.225956	0.321569	
118000	-75782.928	13.495	0.218382	0.230128	0.228379	0.323112	
119000	-75383.527	13.439	0.218382	0.230128	0.228379	0.323112	
120000	-75086.456	13.386	0.218382	0.230128	0.228379	0.323112	
121000	-74634.655	13.504	0.214022	0.225774	0.220603	0.339601	
122000	-74273.422	13.440	0.214022	0.225774	0.220603	0.339601	
123000	-73273.684	13.354	0.214022	0.225774	0.220603	0.339601	
124000	-72907.809	13.455	0.214022	0.225774	0.220603	0.339601	
125000	-72459.744	13.192	0.214022	0.225774	0.220603	0.339601	
126000	-72179.422	13.190	0.217316	0.224474	0.228892	0.329317	
127000	-71863.092	12.951	0.217316	0.224474	0.228892	0.329317	
128000	-71451.833	12.957	0.217316	0.224474	0.228892	0.329317	
129000	-71241.973	12.923	0.217316	0.224474	0.228892	0.329317	
130000	-71090.967	12.887	0.217316	0.224474	0.228892	0.329317	
131000	-70884.356	12.788	0.215091	0.238750	0.222639	0.323520	
132000	-70689.412	12.781	0.220836	0.226279	0.225527	0.327358	
133000	-70585.483	12.710	0.220836	0.226279	0.225527	0.327358	
134000	-70406.596	12.589	0.220836	0.226279	0.225527	0.327358	
135000	-70249.082	12.582	0.213180	0.241515	0.227721	0.317584	
136000	-70106.275	12.575	0.213180	0.241515	0.227721	0.317584	
137000	-69985.344	12.580	0.213180	0.241515	0.227721	0.317584	
138000	-69774.082	12.502	0.213180	0.241515	0.227721	0.317584	
139000	-69564.075	12.531	0.213180	0.241515	0.227721	0.317584	
140000	-69486.717	12.392	0.213180	0.241515	0.227721	0.317584	
141000	-69376.744	12.274	0.213180	0.241515	0.227721	0.317584	
142000	-69269.484	12.321	0.211597	0.236463	0.231561	0.320379	
143000	-69174.823	12.241	0.211314	0.230025	0.233494	0.325167	
144000	-69139.760	12.262	0.218945	0.234241	0.224641	0.322173	
145000	-69041.425	12.185	0.214067	0.235940	0.225223	0.324769	
146000	-68955.819	12.217	0.214067	0.235940	0.225223	0.324769	
147000	-68913.048	12.125	0.213824	0.238805	0.229889	0.317481	
148000	-68835.305	11.975	0.213824	0.238805	0.229889	0.317481	
149000	-68786.651	11.941	0.213824	0.238805	0.229889	0.317481	
150000	-68694.669	11.812	0.214904	0.233937	0.228849	0.322309	
151000	-68592.768	11.722	0.214904	0.233937	0.228849	0.322309	
152000	-68441.526	11.715	0.214904	0.233937	0.228849	0.322309	
153000	-68301.224	11.606	0.214904	0.233937	0.228849	0.322309	
154000	-67929.020	11.676	0.214904	0.233937	0.228849	0.322309	
155000	-67877.019	11.559	0.224113	0.237139	0.226474	0.312274	
156000	-67801.036	11.514	0.224113	0.237139	0.226474	0.312274	
157000	-67747.378	11.477	0.224113	0.237139	0.226474	0.312274	
158000	-67698.201	11.395	0.226077	0.236353	0.222767	0.314803	
159000	-67611.976	11.383	0.219692	0.229543	0.229517	0.321248	
160000	-67571.982	11.385	0.219692	0.229543	0.229517	0.321248	
161000	-67437.332	11.309	0.216079	0.235494	0.230578	0.317849	
162000	-67332.356	11.343	0.216079	0.235494	0.230578	0.317849	
163000	-67265.264	11.363	0.216079	0.235494	0.230578	0.317849	
164000	-67242.419	11.330	0.216079	0.235494	0.230578	0.317849	
165000	-66950.040	11.317	0.217782	0.233082	0.228661	0.320476	
166000	-66870.724	11.171	0.217782	0.233082	0.228661	0.320476	
167000	-66831.676	11.084	0.217782	0.233082	0.228661	0.320476	
168000	-66296.821	11.178	0.220951	0.233961	0.227872	0.317217	
169000	-66155.333	11.251	0.220951	0.233961	0.227872	0.317217	
170000	-65960.218	11.220	0.218602	0.234877	0.225765	0.320756	
171000	-65883.970	11.184	0.218602	0.234877	0.225765	0.320756	
172000	-65817.836	11.237	0.218602	0.234877	0.225765	0.320756	
173000	-65803.200	11.205	0.218602	0.234877	0.225765	0.320756	
174000	-65750.100	11.114	0.218602	0.234877	0.225765	0.320756	
175000	-65627.865	11.161	0.218602	0.234877	0.225765	0.320756	
176000	-65431.534	11.152	0.218602	0.234877	0.225765	0.320756	
177000	-65362.766	11.092	0.218602	0.234877	0.225765	0.320756	
178000	-65309.905	10.922	0.218602	0.234877	0.225765	0.320756	
179000	-65260.200	10.890	0.218602	0.234877	0.225765	0.320756	
180000	-65232.053	10.922	0.218602	0.234877	0.225765	0.320756	
181000	-65155.707	10.958	0.213988	0.233665	0.225897	0.326450	
182000	-65090.440	11.005	0.213433	0.231481	0.232917	0.322169	
183000	-65101.659	11.018	0.208886	0.238530	0.226072	0.326512	
184000	-65056.834	11.007	0.208886	0.238530	0.226072	0.326512	
185000	-65058.743	10.960	0.208886	0.238530	0.226072	0.326512	
186000	-65052.212	10.946	0.208886	0.238530	0.226072	0.326512	
187000	-64993.808	10.924	0.216354	0.227937	0.235151	0.320558	
188000	-64973.647	10.920	0.213623	0.236269	0.238977	0.311131	
189000	-64949.744	10.931	0.212484	0.245445	0.230403	0.311668	
190000	-64911.016	10.983	0.212484	0.245445	0.230403	0.311668	
191000	-64848.895	10.944	0.212484	0.245445	0.230403	0.311668	
192000	-64803.082	10.977	0.212484	0.245445	0.230403	0.311668	
193000	-64777.068	10.989	0.212484	0.245445	0.230403	0.311668	
194000	-64742.610	10.940	0.215283	0.236522	0.229971	0.318223	
195000	-64738.751	10.973	0.215283	0.236522	0.229971	0.318223	
196000	-64678.230	11.013	0.215283	0.236522	0.229971	0.318223	
197000	-64666.937	10.985	0.215283	0.236522	0.229971	0.318223	
198000	-64622.304	10.893	0.218680	0.233063	0.232342	0.315916	
199000	-64553.156	10.894	0.218680	0.233063	0.232342	0.315916	
200000	-64521.425	10.872	0.218680	0.233063	0.232342	0.315916	
201000	-64523.471	10.912	0.221153	0.233119	0.231183	0.314545	
202000	-64464.809	10.839	0.222356	0.239979	0.224173	0.313492	
203000	-64423.592	10.764	0.217479	0.239401	0.228552	0.314568	
204000	-64335.304	10.684	0.217479	0.239401	0.228552	0.314568	
205000	-64249.099	10.653	0.217479	0.239401	0.228552	0.314568	
206000	-64227.884	10.749	0.217479	0.239401	0.228552	0.314568	
207000	-64160.034	10.736	0.217479	0.239401	0.228552	0.314568	
208000	-64133.935	10.724	0.217479	0.239401	0.228552	0.314568	
209000	-64122.608	10.728	0.217479	0.239401	0.228552	0.314568	
210000	-64107.799	10.719	0.217479	0.239401	0.228552	0.314568	
211000	-64077.366	10.693	0.217479	0.239401	0.228552	0.314568	
212000	-64057.110	10.665	0.215142	0.241180	0.227286	0.316392	
213000	-64049.248	10.711	0.203295	0.242440	0.240312	0.313953	
214000	-64023.638	10.691	0.215406	0.233987	0.241134	0.309473	
215000	-63992.489	10.663	0.215016	0.235911	0.236302	0.312770	
216000	-63973.719	10.591	0.215016	0.235911	0.236302	0.312770	
217000	-63970.215	10.546	0.215016	0.235911	0.236302	0.312770	
218000	-63857.618	10.615	0.215016	0.235911	0.236302	0.312770	
219000	-63853.906	10.472	0.215016	0.235911	0.236302	0.312770	
220000	-63695.669	10.515	0.215016	0.235911	0.236302	0.312770	
221000	-63648.832	10.545	0.215016	0.235911	0.236302	0.312770	
222000	-63629.118	10.470	0.220720	0.243738	0.231499	0.304042	
223000	-63632.594	10.514	0.220720	0.243738	0.231499	0.304042	
224000	-63374.442	10.542	0.218893	0.240315	0.230754	0.310038	
225000	-63306.412	10.561	0.218893	0.240315	0.230754	0.310038	
226000	-62800.167	10.670	0.221184	0.240530	0.235191	0.303095	
227000	-62618.524	10.737	0.221184	0.240530	0.235191	0.303095	
228000	-62549.033	10.702	0.221184	0.240530	0.235191	0.303095	
229000	-62501.411	10.723	0.221184	0.240530	0.235191	0.303095	
230000	-62478.317	10.657	0.214914	0.239283	0.237072	0.308731	
231000	-62452.221	10.738	0.214914	0.239283	0.237072	0.308731	
232000	-62358.272	10.603	0.218099	0.236649	0.237519	0.307733	
233000	-62354.836	10.587	0.218099	0.236649	0.237519	0.307733	
234000	-62321.158	10.514	0.218099	0.236649	0.237519	0.307733	
235000	-62296.513	10.527	0.218099	0.236649	0.237519	0.307733	
236000	-62299.673	10.556	0.219881	0.244752	0.233202	0.302165	
237000	-62279.359	10.468	0.218546	0.248312	0.229008	0.304134	
238000	-62273.968	10.460	0.218405	0.240576	0.237799	0.303220	
239000	-62228.934	10.359	0.218405	0.240576	0.237799	0.303220	
240000	-62213.590	10.384	0.218405	0.240576	0.237799	0.303220	
241000	-62163.165	10.326	0.218405	0.240576	0.237799	0.303220	
242000	-62156.996	10.347	0.218405	0.240576	0.237799	0.303220	
243000	-62133.425	10.372	0.218405	0.240576	0.237799	0.303220	
244000	-62105.165	10.335	0.218405	0.240576	0.237799	0.303220	
245000	-62101.197	10.327	0.218405	0.240576	0.237799	0.303220	
246000	-62088.068	10.331	0.218405	0.240576	0.237799	0.303220	
247000	-62034.507	10.337	0.218405	0.240576	0.237799	0.303220	
248000	-61986.084	10.337	0.218405	0.240576	0.237799	0.303220	
249000	-61983.039	10.270	0.218405	0.240576	0.237799	0.303220	
250000	-61979.833	10.285	0.218405	0.240576	0.237799	0.303220	
251000	-61977.877	10.296	0.218405	0.240576	0.237799	0.303220	
252000	-62005.240	10.271	0.218405	0.240576	0.237799	0.303220	
253000	-61935.721	10.208	0.218405	0.240576	0.237799	0.303220	
254000	-61918.348	10.220	0.218405	0.240576	0.237799	0.303220	
255000	-61871.417	10.128	0.218405	0.240576	0.237799	0.303220	
256000	-61874.981	10.098	0.218405	0.240576	0.237799	0.303220	
257000	-61875.471	10.065	0.218405	0.240576	0.237799	0.303220	
258000	-61872.131	10.077	0.218405	0.240576	0.237799	0.303220	
259000	-61832.889	10.112	0.210876	0.244176	0.236568	0.308380	
260000	-61810.578	10.107	0.222819	0.240560	0.238471	0.298150	
261000	-61722.334	10.154	0.222819	0.240560	0.238471	0.298150	
262000	-61698.460	10.255	0.222819	0.240560	0.238471	0.298150	
263000	-61674.838	10.251	0.222819	0.240560	0.238471	0.298150	
264000	-61626.499	10.157	0.222819	0.240560	0.238471	0.298150	
265000	-61497.309	10.086	0.224499	0.241054	0.236080	0.298367	
266000	-61469.449	10.083	0.224499	0.241054	0.236080	0.298367	
267000	-61362.443	10.791	0.219036	0.240582	0.227342	0.313040	
268000	-61082.757	10.850	0.219036	0.240582	0.227342	0.313040	
269000	-60880.924	10.819	0.219036	0.240582	0.227342	0.313040	
270000	-60476.770	10.662	0.218770	0.221191	0.234596	0.325443	
271000	-60223.296	10.595	0.221170	0.235730	0.229406	0.313694	
272000	-60170.637	10.538	0.221170	0.235730	0.229406	0.313694	
273000	-60043.845	10.539	0.221170	0.235730	0.229406	0.313694	
274000	-59884.849	10.604	0.221170	0.235730	0.229406	0.313694	
275000	-59584.154	10.560	0.221170	0.235730	0.229406	0.313694	
276000	-59174.285	10.498	0.221170	0.235730	0.229406	0.313694	
277000	-58599.911	10.373	0.219096	0.231471	0.228575	0.320858	
278000	-58363.102	10.316	0.220232	0.222160	0.225971	0.331637	
279000	-58243.940	10.168	0.220232	0.222160	0.225971	0.331637	
280000	-58078.585	10.082	0.220136	0.232937	0.224244	0.322683	
281000	-57921.898	10.107	0.220136	0.232937	0.224244	0.322683	
282000	-57672.648	10.208	0.220136	0.232937	0.224244	0.322683	
283000	-57211.222	9.989	0.220222	0.228110	0.227295	0.324373	
284000	-57129.896	9.886	0.220222	0.228110	0.227295	0.324373	
285000	-56906.268	9.776	0.220222	0.228110	0.227295	0.324373	
286000	-56802.780	9.796	0.225909	0.222394	0.228118	0.323579	
287000	-56705.403	9.846	0.222320	0.226316	0.221586	0.329778	
288000	-56642.530	9.849	0.222320	0.226316	0.221586	0.329778	
289000	-56573.572	9.726	0.222320	0.226316	0.221586	0.329778	
290000	-56524.057	9.712	0.222320	0.226316	0.221586	0.329778	
291000	-56440.876	9.756	0.222320	0.226316	0.221586	0.329778	
292000	-56368.093	9.759	0.222320	0.226316	0.221586	0.329778	
293000	-56340.406	9.704	0.222320	0.226316	0.221586	0.329778	
294000	-56107.993	9.679	0.214608	0.222319	0.235673	0.327401	
295000	-56029.727	9.617	0.219620	0.223651	0.228356	0.328374	
296000	-55870.948	9.627	0.219620	0.223651	0.228356	0.328374	
297000	-55765.065	9.551	0.219620	0.223651	0.228356	0.328374	
298000	-55690.332	9.519	0.219620	0.223651	0.228356	0.328374	
299000	-55651.264	9.463	0.219620	0.223651	0.228356	0.328374	
300000	-55297.193	9.330	0.219620	0.223651	0.228356	0.328374	
301000	-55189.038	9.314	0.219620	0.223651	0.228356	0.328374	
302000	-55146.121	9.218	0.219620	0.223651	0.228356	0.328374	
303000	-55126.834	9.236	0.212775	0.226924	0.236621	0.323679	
304000	-55079.790	9.314	0.222567	0.233870	0.222887	0.320675	
305000	-54975.544	9.279	0.217451	0.237396	0.229290	0.315863	
306000	-54935.147	9.239	0.217451	0.237396	0.229290	0.315863	
307000	-54912.099	9.294	0.217046	0.226475	0.225092	0.331387	
308000	-54891.254	9.271	0.226985	0.228459	0.229932	0.314624	
309000	-54789.808	9.176	0.226985	0.228459	0.229932	0.314624	
310000	-54785.577	9.196	0.226985	0.228459	0.229932	0.314624	
311000	-54744.162	9.182	0.216076	0.231218	0.235123	0.317583	
312000	-54736.396	9.195	0.227254	0.227784	0.228862	0.316099	
313000	-54701.619	9.229	0.227254	0.227784	0.228862	0.316099	
314000	-54673.324	9.205	0.224546	0.231225	0.230556	0.313674	
315000	-54645.039	9.218	0.224546	0.231225	0.230556	0.313674	
316000	-54615.664	9.151	0.224546	0.231225	0.230556	0.313674	
317000	-54584.117	9.122	0.224546	0.231225	0.230556	0.313674	
318000	-54560.800	9.107	0.223326	0.231364	0.230511	0.314800	
319000	-54546.097	9.125	0.216204	0.231838	0.237427	0.314531	
320000	-54519.460	9.085	0.222228	0.237967	0.227374	0.312431	
321000	-54521.733	9.058	0.219990	0.226549	0.230957	0.322503	
322000	-54533.782	9.074	0.219990	0.226549	0.230957	0.322503	
323000	-54508.285	9.092	0.219990	0.226549	0.230957	0.322503	
324000	-54505.146	9.063	0.219990	0.226549	0.230957	0.322503	
325000	-54501.619	9.062	0.209264	0.230570	0.229885	0.330281	
326000	-54511.375	9.064	0.209175	0.228255	0.231335	0.331234	
327000	-54503.025	9.045	0.223222	0.219320	0.234827	0.322630	
328000	-54488.505	8.986	0.219196	0.232416	0.222177	0.326211	
329000	-54475.864	8.997	0.219196	0.232416	0.222177	0.326211	
330000	-54480.107	8.926	0.225528	0.232687	0.220877	0.320908	
331000	-54481.024	8.992	0.225528	0.232687	0.220877	0.320908	
332000	-54477.182	9.002	0.222091	0.225792	0.229074	0.323043	
333000	-54472.974	9.012	0.222091	0.225792	0.229074	0.323043	
334000	-54467.644	9.035	0.222091	0.225792	0.229074	0.323043	
335000	-54484.972	9.033	0.222091	0.225792	0.229074	0.323043	
336000	-54470.464	9.077	0.222091	0.225792	0.229074	0.323043	
337000	-54462.832	9.016	0.222091	0.225792	0.229074	0.323043	
338000	-54463.717	9.064	0.217154	0.231162	0.227923	0.323761	
339000	-54465.483	9.079	0.217154	0.231162	0.227923	0.323761	
340000	-54451.849	9.060	0.217154	0.231162	0.227923	0.323761	
341000	-54420.674	9.001	0.217154	0.231162	0.227923	0.323761	
342000	-54410.174	8.967	0.217154	0.231162	0.227923	0.323761	
343000	-54389.547	8.961	0.217154	0.231162	0.227923	0.323761	
344000	-54367.377	9.019	0.217154	0.231162	0.227923	0.323761	
345000	-54358.102	8.970	0.222550	0.232031	0.230997	0.314421	
346000	-54393.176	8.887	0.222550	0.232031	0.230997	0.314421	
347000	-54384.043	8.888	0.222550	0.232031	0.230997	0.314421	
348000	-54377.231	8.875	0.222550	0.232031	0.230997	0.314421	
349000	-54357.764	8.915	0.222550	0.232031	0.230997	0.314421	
350000	-54336.662	8.915	0.223646	0.226872	0.231921	0.317561	
351000	-54332.676	8.852	0.223646	0.226872	0.231921	0.317561	
352000	-54357.781	8.882	0.223646	0.226872	0.231921	0.317561	
353000	-54348.103	8.875	0.223646	0.226872	0.231921	0.317561	
354000	-54325.970	8.959	0.215961	0.234264	0.232287	0.317488	
355000	-54318.638	8.905	0.215961	0.234264	0.232287	0.317488	
356000	-54315.208	8.886	0.211828	0.233530	0.232500	0.322142	
357000	-54308.913	8.889	0.218646	0.233667	0.235545	0.312143	
358000	-54314.030	8.929	0.218646	0.233667	0.235545	0.312143	
359000	-54228.760	8.873	0.218646	0.233667	0.235545	0.312143	
360000	-54069.159	8.885	0.218646	0.233667	0.235545	0.312143	
361000	-53697.011	8.877	0.211488	0.232500	0.230711	0.325301	
362000	-53642.386	8.928	0.220249	0.233969	0.238269	0.307513	
363000	-53597.433	8.972	0.214839	0.236263	0.229035	0.319864	
364000	-53587.177	9.040	0.225793	0.228511	0.235465	0.310230	
365000	-53585.611	9.070	0.222662	0.222559	0.237975	0.316804	
366000	-53572.255	9.056	0.222662	0.222559	0.237975	0.316804	
367000	-53550.760	9.045	0.215157	0.237967	0.225821	0.321054	
368000	-53551.497	9.014	0.217178	0.236089	0.237595	0.309138	
369000	-53539.144	8.969	0.217178	0.236089	0.237595	0.309138	
370000	-53536.754	8.966	0.217178	0.236089	0.237595	0.309138	
371000	-53522.078	8.953	0.225326	0.237851	0.228549	0.308274	
372000	-53537.621	8.959	0.219992	0.237438	0.224745	0.317825	
373000	-53523.683	8.870	0.224796	0.227541	0.239258	0.308405	
374000	-53518.095	8.861	0.216382	0.229068	0.236226	0.318324	
375000	-53511.499	8.833	0.218584	0.228557	0.228439	0.324420	
376000	-53496.173	8.808	0.218584	0.228557	0.228439	0.324420	
377000	-53430.854	8.810	0.218584	0.228557	0.228439	0.324420	
378000	-53443.230	8.777	0.214199	0.235054	0.232480	0.318268	
379000	-53035.166	9.225	0.234510	0.239027	0.229400	0.297063	
380000	-52754.143	9.069	0.217831	0.241878	0.223334	0.316958	
381000	-52537.319	9.033	0.221880	0.230137	0.226358	0.321626	
382000	-52277.753	8.809	0.228724	0.236099	0.232451	0.302727	
383000	-52173.196	8.735	0.229868	0.237374	0.225259	0.307498	
384000	-52001.311	8.609	0.224908	0.237542	0.224186	0.313364	
385000	-51875.781	8.586	0.224908	0.237542	0.224186	0.313364	
386000	-51694.552	8.553	0.233931	0.239875	0.227645	0.298549	
387000	-51659.011	8.451	0.233046	0.236883	0.220813	0.309259	
388000	-51550.037	8.499	0.230288	0.240167	0.220330	0.309215	
389000	-51463.139	8.604	0.230288	0.240167	0.220330	0.309215	
390000	-51440.599	8.574	0.230288	0.240167	0.220330	0.309215	
391000	-51227.456	8.448	0.234294	0.239348	0.222792	0.303567	
392000	-51181.957	8.434	0.231829	0.238941	0.228592	0.300638	
393000	-51139.667	8.491	0.226318	0.240373	0.234287	0.299022	
394000	-51124.093	8.452	0.226318	0.240373	0.234287	0.299022	
395000	-51075.115	8.459	0.223046	0.238662	0.229448	0.308843	
396000	-51055.262	8.446	0.223046	0.238662	0.229448	0.308843	
397000	-51046.634	8.420	0.229645	0.241931	0.228724	0.299699	
398000	-51009.220	8.399	0.229645	0.241931	0.228724	0.299699	
399000	-50966.702	8.375	0.229645	0.241931	0.228724	0.299699	
400000	-50911.850	8.343	0.229645	0.241931	0.228724	0.299699	
401000	-50882.042	8.358	0.230341	0.240325	0.231488	0.297847	
402000	-50851.740	8.316	0.230341	0.240325	0.231488	0.297847	
403000	-50835.695	8.300	0.230341	0.240325	0.231488	0.297847	
404000	-50817.718	8.256	0.221046	0.242088	0.229559	0.307306	
405000	-50818.026	8.284	0.219669	0.235108	0.232018	0.313205	
406000	-50799.667	8.248	0.232919	0.242493	0.221491	0.303096	
407000	-50792.721	8.225	0.228015	0.249459	0.223826	0.298700	
408000	-50800.780	8.163	0.230193	0.247854	0.231051	0.290902	
409000	-50812.695	8.166	0.234216	0.247151	0.221727	0.296906	
410000	-50795.974	8.183	0.219942	0.243358	0.233296	0.303404	
411000	-50759.054	8.183	0.229034	0.241319	0.231886	0.297761	
412000	-50757.203	8.142	0.228515	0.245026	0.226382	0.300078	
413000	-50731.002	8.146	0.228515	0.245026	0.226382	0.300078	
414000	-50734.413	8.066	0.228515	0.245026	0.226382	0.300078	
415000	-50762.824	8.108	0.232547	0.235811	0.223405	0.308238	
416000	-50775.604	8.129	0.232547	0.235811	0.223405	0.308238	
417000	-50752.993	8.082	0.225253	0.246499	0.237724	0.290524	
418000	-50681.940	8.080	0.218625	0.239163	0.225607	0.316605	
419000	-50677.343	8.153	0.224992	0.249937	0.230086	0.294984	
420000	-50668.769	8.155	0.222621	0.238291	0.235061	0.304028	
421000	-50693.374	8.211	0.222621	0.238291	0.235061	0.304028	
422000	-50695.417	8.208	0.222621	0.238291	0.235061	0.304028	
423000	-50715.876	8.206	0.222621	0.238291	0.235061	0.304028	
424000	-50705.281	8.152	0.222621	0.238291	0.235061	0.304028	
425000	-50687.483	8.070	0.226510	0.246153	0.226183	0.301155	
426000	-50675.792	8.013	0.226510	0.246153	0.226183	0.301155	
427000	-50576.463	8.686	0.228195	0.243374	0.230328	0.298102	
428000	-50253.493	8.657	0.228195	0.243374	0.230328	0.298102	
429000	-50157.341	8.696	0.228195	0.243374	0.230328	0.298102	
430000	-49931.462	8.696	0.228195	0.243374	0.230328	0.298102	
431000	-49811.873	8.625	0.228195	0.243374	0.230328	0.298102	
432000	-49563.254	8.535	0.228195	0.243374	0.230328	0.298102	
433000	-49320.653	8.492	0.228195	0.243374	0.230328	0.298102	
434000	-49219.870	8.389	0.223014	0.242547	0.230424	0.304015	
435000	-49109.196	8.355	0.223014	0.242547	0.230424	0.304015	
436000	-49038.035	8.334	0.223014	0.242547	0.230424	0.304015	
437000	-48988.469	8.232	0.223014	0.242547	0.230424	0.304015	
438000	-48973.442	8.193	0.223014	0.242547	0.230424	0.304015	
439000	-48923.949	8.168	0.223014	0.242547	0.230424	0.304015	
440000	-48823.901	8.152	0.222842	0.244205	0.238595	0.294359	
441000	-48652.161	8.129	0.223454	0.244281	0.233236	0.299028	
442000	-48583.556	8.154	0.223454	0.244281	0.233236	0.299028	
443000	-48541.377	8.194	0.223454	0.244281	0.233236	0.299028	
444000	-48418.977	8.187	0.227509	0.243096	0.231858	0.297537	
445000	-48330.349	8.159	0.227509	0.243096	0.231858	0.297537	
446000	-48274.566	8.164	0.221782	0.242986	0.229845	0.305386	
447000	-48256.618	8.158	0.221782	0.242986	0.229845	0.305386	
448000	-48265.398	8.193	0.230197	0.249386	0.229052	0.291365	
449000	-48249.608	8.174	0.230197	0.249386	0.229052	0.291365	
450000	-48223.611	8.190	0.230197	0.249386	0.229052	0.291365	
451000	-48139.982	8.167	0.233128	0.239168	0.229770	0.297933	
452000	-48138.039	8.160	0.225870	0.237993	0.245911	0.290226	
453000	-48093.103	8.033	0.219282	0.236445	0.239742	0.304531	
454000	-48013.565	7.934	0.219282	0.236445	0.239742	0.304531	
455000	-48013.470	7.924	0.219282	0.236445	0.239742	0.304531	
456000	-48016.607	7.911	0.214796	0.242834	0.239726	0.302644	
457000	-47992.996	7.914	0.226465	0.242149	0.233829	0.297556	
458000	-47910.370	7.985	0.226465	0.242149	0.233829	0.297556	
459000	-47869.275	7.910	0.233180	0.234998	0.233294	0.298529	
460000	-47854.878	7.845	0.233180	0.234998	0.233294	0.298529	
461000	-47854.815	7.876	0.225818	0.243064	0.237783	0.293334	
462000	-47844.942	7.873	0.225818	0.243064	0.237783	0.293334	
463000	-47813.912	7.802	0.225818	0.243064	0.237783	0.293334	
464000	-47788.900	7.792	0.219728	0.243917	0.235702	0.300653	
465000	-47769.826	7.785	0.223020	0.242950	0.232749	0.301281	
466000	-47715.530	7.793	0.223020	0.242950	0.232749	0.301281	
467000	-47694.623	7.775	0.223020	0.242950	0.232749	0.301281	
468000	-47689.047	7.787	0.230339	0.243933	0.239499	0.286229	
469000	-47669.582	7.790	0.230339	0.243933	0.239499	0.286229	
470000	-47655.391	7.769	0.220657	0.252124	0.231718	0.295501	
471000	-47647.822	7.736	0.220657	0.252124	0.231718	0.295501	
472000	-47629.098	7.692	0.220657	0.252124	0.231718	0.295501	
473000	-47614.442	7.693	0.220163	0.243883	0.233843	0.302112	
474000	-47610.280	7.669	0.220163	0.243883	0.233843	0.302112	
475000	-47591.931	7.669	0.224192	0.235642	0.237074	0.303092	
476000	-47585.730	7.626	0.218903	0.244893	0.246488	0.289716	
477000	-47575.176	7.599	0.231737	0.245189	0.234652	0.288421	
478000	-47549.546	7.618	0.231737	0.245189	0.234652	0.288421	
479000	-47561.670	7.679	0.218446	0.240886	0.240085	0.300583	
480000	-47553.960	7.634	0.218446	0.240886	0.240085	0.300583	
481000	-47553.101	7.620	0.218446	0.240886	0.240085	0.300583	
482000	-47545.058	7.651	0.218446	0.240886	0.240085	0.300583	
483000	-47560.230	7.601	0.226915	0.243904	0.234173	0.295008	
484000	-47579.130	7.617	0.227102	0.234586	0.244276	0.294035	
485000	-47552.883	7.599	0.223554	0.238618	0.240875	0.296953	
486000	-47528.733	7.589	0.232426	0.237113	0.241650	0.288811	
487000	-47538.882	7.557	0.229348	0.245695	0.231947	0.293010	
488000	-47551.729	7.597	0.230104	0.241869	0.234518	0.293509	
489000	-47546.722	7.620	0.230104	0.241869	0.234518	0.293509	
490000	-47522.984	7.556	0.230104	0.241869	0.234518	0.293509	
491000	-47486.932	7.498	0.223307	0.248516	0.233928	0.294249	
492000	-47513.372	7.468	0.223307	0.248516	0.233928	0.294249	
493000	-47490.752	7.466	0.223307	0.248516	0.233928	0.294249	
494000	-47510.750	7.480	0.223307	0.248516	0.233928	0.294249	
495000	-47492.751	7.496	0.223307	0.248516	0.233928	0.294249	
496000	-47496.358	7.394	0.223307	0.248516	0.233928	0.294249	
497000	-47482.412	7.404	0.223307	0.248516	0.233928	0.294249	
498000	-47478.860	7.457	0.223307	0.248516	0.233928	0.294249	
499000	-47472.120	7.469	0.223307	0.248516	0.233928	0.294249	
500000	-47458.721	7.483	0.228288	0.243303	0.236398	0.292010	
501000	-47445.627	7.436	0.226885	0.245521	0.235454	0.292139	
502000	-47447.191	7.520	0.226885	0.245521	0.235454	0.292139	
503000	-47480.031	7.571	0.226885	0.245521	0.235454	0.292139	
504000	-47459.967	7.560	0.226885	0.245521	0.235454	0.292139	
505000	-47471.105	7.523	0.226885	0.245521	0.235454	0.292139	
506000	-47463.906	7.559	0.226885	0.245521	0.235454	0.292139	
507000	-47464.178	7.571	0.221222	0.248083	0.235386	0.295310	
508000	-47463.886	7.555	0.221222	0.248083	0.235386	0.295310	
509000	-47474.631	7.533	0.226215	0.250233	0.237822	0.285729	
510000	-47473.348	7.509	0.226215	0.250233	0.237822	0.285729	
511000	-47483.750	7.548	0.226215	0.250233	0.237822	0.285729	
512000	-47482.891	7.525	0.226215	0.250233	0.237822	0.285729	
513000	-47480.914	7.531	0.226215	0.250233	0.237822	0.285729	
514000	-47472.233	7.490	0.226215	0.250233	0.237822	0.285729	
515000	-47452.304	7.479	0.226215	0.250233	0.237822	0.285729	
516000	-47446.766	7.484	0.226415	0.250121	0.242334	0.281130	
517000	-47420.058	7.462	0.223891	0.241913	0.243655	0.290541	
518000	-47417.084	7.442	0.223891	0.241913	0.243655	0.290541	
519000	-47414.735	7.438	0.223891	0.241913	0.243655	0.290541	
520000	-47398.638	7.456	0.223891	0.241913	0.243655	0.290541	
521000	-47357.583	7.446	0.223891	0.241913	0.243655	0.290541	
522000	-47345.029	7.380	0.225240	0.241515	0.244589	0.288657	
523000	-47316.679	7.362	0.223023	0.238824	0.246987	0.291166	
524000	-47290.934	7.359	0.220088	0.255014	0.231731	0.293168	
525000	-47286.801	7.364	0.218873	0.243996	0.243409	0.293723	
526000	-47293.827	7.380	0.227865	0.243429	0.238431	0.290275	
527000	-47293.695	7.342	0.227865	0.243429	0.238431	0.290275	
528000	-47279.877	7.317	0.227865	0.243429	0.238431	0.290275	
529000	-47252.602	7.258	0.222748	0.242124	0.242024	0.293103	
530000	-47270.058	7.262	0.220167	0.246956	0.240918	0.291959	
531000	-47249.741	7.309	0.220167	0.246956	0.240918	0.291959	
532000	-47241.633	7.310	0.226913	0.243925	0.244262	0.284901	
533000	-47230.178	7.349	0.218449	0.248507	0.235364	0.297680	
534000	-47228.787	7.336	0.218449	0.248507	0.235364	0.297680	
535000	-47210.846	7.335	0.224702	0.239181	0.240318	0.295799	
536000	-47217.612	7.338	0.224702	0.239181	0.240318	0.295799	
537000	-47233.051	7.306	0.224702	0.239181	0.240318	0.295799	
538000	-47249.671	7.382	0.224702	0.239181	0.240318	0.295799	
539000	-47270.224	7.347	0.230252	0.241069	0.242919	0.285759	
540000	-47287.411	7.362	0.233450	0.244532	0.233308	0.288710	
541000	-47264.663	7.315	0.226864	0.239465	0.232974	0.300698	
542000	-47267.123	7.323	0.226864	0.239465	0.232974	0.300698	
543000	-47269.071	7.328	0.227803	0.242045	0.245287	0.284866	
544000	-47241.576	7.344	0.227183	0.237124	0.244661	0.291032	
545000	-47233.793	7.340	0.217486	0.237395	0.241903	0.303216	
546000	-47248.722	7.353	0.216280	0.241046	0.253627	0.289047	
547000	-47245.158	7.327	0.218945	0.252065	0.232509	0.296481	
548000	-47247.603	7.369	0.218945	0.252065	0.232509	0.296481	
549000	-47262.907	7.383	0.229212	0.241284	0.238491	0.291013	
550000	-47257.716	7.367	0.229212	0.241284	0.238491	0.291013	
551000	-47267.156	7.370	0.225576	0.236538	0.233733	0.304153	
552000	-47274.564	7.394	0.215941	0.246908	0.241063	0.296087	
553000	-47267.474	7.362	0.216726	0.245661	0.243886	0.293728	
554000	-47286.933	7.318	0.225421	0.241528	0.242370	0.290681	
555000	-47257.558	7.297	0.222758	0.242562	0.247194	0.287487	
556000	-47237.212	7.285	0.234989	0.239863	0.241711	0.283436	
557000	-47240.884	7.273	0.222941	0.248961	0.243180	0.284917	
558000	-47238.671	7.282	0.220577	0.242557	0.241811	0.295056	
559000	-47240.137	7.281	0.220577	0.242557	0.241811	0.295056	
560000	-47235.907	7.262	0.220577	0.242557	0.241811	0.295056	
561000	-47224.725	7.265	0.220577	0.242557	0.241811	0.295056	
562000	-47198.562	7.272	0.224187	0.244865	0.237969	0.292979	
563000	-47219.451	7.332	0.224187	0.244865	0.237969	0.292979	
564000	-47237.995	7.355	0.224187	0.244865	0.237969	0.292979	
565000	-47231.452	7.349	0.224880	0.243635	0.242477	0.289009	
566000	-47219.744	7.417	0.224880	0.243635	0.242477	0.289009	
567000	-47239.565	7.342	0.224880	0.243635	0.242477	0.289009	
568000	-47219.208	7.334	0.218022	0.246090	0.239576	0.296312	
569000	-47191.372	7.336	0.225361	0.244718	0.238112	0.291809	
570000	-47189.883	7.321	0.218888	0.246933	0.241243	0.292936	
571000	-47186.860	7.371	0.218888	0.246933	0.241243	0.292936	
572000	-47168.814	7.364	0.224175	0.238051	0.243227	0.294548	
573000	-47155.549	7.264	0.232227	0.243385	0.232455	0.291933	
574000	-47143.197	7.304	0.232227	0.243385	0.232455	0.291933	
575000	-47146.604	7.249	0.219094	0.243775	0.238368	0.298763	
576000	-47194.909	7.292	0.212688	0.239483	0.250417	0.297412	
577000	-47179.748	7.301	0.212688	0.239483	0.250417	0.297412	
578000	-47166.240	7.295	0.234018	0.233193	0.239031	0.293758	
579000	-47180.173	7.256	0.231567	0.236444	0.237415	0.294574	
580000	-47181.705	7.298	0.217376	0.240983	0.244810	0.296831	
581000	-47174.002	7.284	0.224096	0.235128	0.244337	0.296439	
582000	-47171.836	7.321	0.215718	0.243854	0.247047	0.293381	
583000	-47167.652	7.310	0.217998	0.245292	0.242885	0.293824	
584000	-47175.876	7.312	0.227396	0.242496	0.232804	0.297304	
585000	-47179.091	7.268	0.225231	0.245450	0.242592	0.286727	
586000	-47162.893	7.270	0.225231	0.245450	0.242592	0.286727	
587000	-47176.192	7.225	0.225231	0.245450	0.242592	0.286727	
588000	-47157.454	7.241	0.225127	0.245038	0.230286	0.299549	
589000	-47154.890	7.267	0.225127	0.245038	0.230286	0.299549	
590000	-47153.595	7.268	0.225127	0.245038	0.230286	0.299549	
591000	-47168.744	7.296	0.228776	0.243007	0.238882	0.289336	
592000	-47180.800	7.294	0.228776	0.243007	0.238882	0.289336	
593000	-47186.472	7.266	0.224619	0.248439	0.237492	0.289450	
594000	-47181.410	7.247	0.224619	0.248439	0.237492	0.289450	
595000	-47171.046	7.317	0.224619	0.248439	0.237492	0.289450	
596000	-47164.465	7.351	0.218192	0.243556	0.240852	0.297400	
597000	-47161.577	7.299	0.218192	0.243556	0.240852	0.297400	
598000	-47147.688	7.251	0.218192	0.243556	0.240852	0.297400	
599000	-47144.136	7.183	0.218192	0.243556	0.240852	0.297400	
600000	-47146.990	7.169	0.218192	0.243556	0.240852	0.297400	
601000	-47137.248	7.217	0.218192	0.243556	0.240852	0.297400	
602000	-47142.053	7.229	0.218192	0.243556	0.240852	0.297400	
603000	-47142.008	7.244	0.218192	0.243556	0.240852	0.297400	
604000	-47147.087	7.262	0.224698	0.239942	0.239815	0.295545	
605000	-47175.303	7.286	0.227756	0.245409	0.235311	0.291525	
606000	-47185.019	7.305	0.226415	0.237608	0.237411	0.298566	
607000	-47190.232	7.313	0.226415	0.237608	0.237411	0.298566	
608000	-47191.778	7.341	0.226415	0.237608	0.237411	0.298566	
609000	-47218.550	7.349	0.226415	0.237608	0.237411	0.298566	
610000	-47207.765	7.379	0.220388	0.235903	0.244716	0.298993	
611000	-47199.830	7.362	0.220388	0.235903	0.244716	0.298993	
612000	-47194.180	7.349	0.220388	0.235903	0.244716	0.298993	
613000	-47201.672	7.449	0.229283	0.241136	0.238594	0.290987	
614000	-47202.493	7.491	0.229283	0.241136	0.238594	0.290987	
615000	-47188.982	7.446	0.229283	0.241136	0.238594	0.290987	
616000	-47199.945	7.403	0.218136	0.240390	0.243380	0.298094	
617000	-47204.113	7.383	0.218136	0.240390	0.243380	0.298094	
618000	-47212.981	7.400	0.230518	0.244463	0.230075	0.294943	
619000	-47208.737	7.363	0.222881	0.249548	0.229431	0.298140	
620000	-47202.938	7.344	0.220659	0.243962	0.249073	0.286305	
621000	-47199.141	7.322	0.215695	0.246290	0.232031	0.305984	
622000	-47187.258	7.294	0.215627	0.237816	0.242800	0.303757	
623000	-47165.302	7.290	0.215627	0.237816	0.242800	0.303757	
624000	-47141.941	7.252	0.227432	0.247137	0.233103	0.292328	
625000	-47169.468	7.273	0.222297	0.245440	0.243118	0.289144	
626000	-47177.312	7.284	0.222297	0.245440	0.243118	0.289144	
627000	-47184.233	7.267	0.222297	0.245440	0.243118	0.289144	
628000	-47181.915	7.292	0.222297	0.245440	0.243118	0.289144	
629000	-47173.552	7.278	0.222297	0.245440	0.243118	0.289144	
630000	-47163.953	7.245	0.222297	0.245440	0.243118	0.289144	
631000	-47170.416	7.265	0.222297	0.245440	0.243118	0.289144	
632000	-47176.733	7.225	0.222170	0.235906	0.244947	0.296976	
633000	-47163.967	7.275	0.222170	0.235906	0.244947	0.296976	
634000	-47158.426	7.258	0.221127	0.234127	0.244884	0.299862	
635000	-47188.254	7.305	0.221127	0.234127	0.244884	0.299862	
636000	-47188.486	7.327	0.220879	0.245498	0.241222	0.292400	
637000	-47196.643	7.332	0.220879	0.245498	0.241222	0.292400	
638000	-47194.222	7.328	0.220879	0.245498	0.241222	0.292400	
639000	-47190.940	7.315	0.224927	0.242577	0.242011	0.290485	
640000	-47165.754	7.239	0.224927	0.242577	0.242011	0.290485	
641000	-47166.638	7.243	0.224927	0.242577	0.242011	0.290485	
642000	-47196.686	7.227	0.224927	0.242577	0.242011	0.290485	
643000	-47212.061	7.237	0.226714	0.243164	0.240617	0.289505	
644000	-47215.802	7.207	0.226714	0.243164	0.240617	0.289505	
645000	-47215.866	7.252	0.226714	0.243164	0.240617	0.289505	
646000	-47217.812	7.231	0.220196	0.241736	0.246886	0.291182	
647000	-47209.817	7.241	0.220196	0.241736	0.246886	0.291182	
648000	-47193.581	7.173	0.221547	0.249929	0.235552	0.292972	
649000	-47182.641	7.151	0.221547	0.249929	0.235552	0.292972	
650000	-47194.326	7.204	0.223898	0.248598	0.236408	0.291096	
651000	-47179.762	7.155	0.223555	0.241943	0.240954	0.293548	
652000	-47190.426	7.092	0.223555	0.241943	0.240954	0.293548	
653000	-47173.749	7.112	0.223555	0.241943	0.240954	0.293548	
654000	-47172.264	7.103	0.223162	0.250837	0.237395	0.288606	
655000	-47172.928	7.176	0.226876	0.237957	0.241225	0.293943	
656000	-47176.971	7.208	0.221464	0.246018	0.241317	0.291200	
657000	-47169.909	7.240	0.235616	0.243852	0.233450	0.287082	
658000	-47162.080	7.331	0.224239	0.234204	0.240748	0.300809	
659000	-47176.150	7.315	0.224239	0.234204	0.240748	0.300809	
660000	-47177.465	7.307	0.218288	0.239565	0.245297	0.296851	
661000	-47186.195	7.389	0.224707	0.238620	0.242679	0.293994	
662000	-47183.644	7.378	0.224707	0.238620	0.242679	0.293994	
663000	-47172.821	7.345	0.223493	0.235941	0.234033	0.306534	
664000	-47173.490	7.343	0.223493	0.235941	0.234033	0.306534	
665000	-47195.545	7.336	0.219584	0.256721	0.233166	0.290528	
666000	-47212.172	7.394	0.225770	0.248079	0.236783	0.289368	
667000	-47182.653	7.368	0.223565	0.246088	0.241078	0.289269	
668000	-47172.493	7.338	0.223565	0.246088	0.241078	0.289269	
669000	-47168.611	7.362	0.230688	0.243090	0.231701	0.294521	
670000	-47178.090	7.355	0.228123	0.239265	0.241559	0.291053	
671000	-47174.528	7.337	0.229832	0.242471	0.236875	0.290821	
672000	-47167.829	7.339	0.229832	0.242471	0.236875	0.290821	
673000	-47162.393	7.354	0.229832	0.242471	0.236875	0.290821	
674000	-47148.549	7.316	0.228234	0.241445	0.233151	0.297169	
675000	-47133.697	7.322	0.228234	0.241445	0.233151	0.297169	
676000	-47158.216	7.341	0.228234	0.241445	0.233151	0.297169	
677000	-47193.637	7.452	0.228234	0.241445	0.233151	0.297169	
678000	-47201.550	7.416	0.228234	0.241445	0.233151	0.297169	
679000	-47192.824	7.448	0.228234	0.241445	0.233151	0.297169	
680000	-47200.594	7.475	0.229987	0.244228	0.237443	0.288341	
681000	-47184.074	7.425	0.229987	0.244228	0.237443	0.288341	
682000	-47167.702	7.416	0.229987	0.244228	0.237443	0.288341	
683000	-47162.495	7.426	0.229987	0.244228	0.237443	0.288341	
684000	-47163.652	7.395	0.229987	0.244228	0.237443	0.288341	
685000	-47144.508	7.366	0.214579	0.241585	0.238573	0.305263	
686000	-47124.352	7.357	0.219137	0.243140	0.231896	0.305827	
687000	-47118.497	7.347	0.232260	0.247812	0.228046	0.291882	
688000	-47136.318	7.359	0.211661	0.238003	0.247417	0.302920	
689000	-47129.546	7.300	0.224722	0.248105	0.241877	0.285296	
690000	-47143.846	7.379	0.224722	0.248105	0.241877	0.285296	
691000	-47128.298	7.319	0.223616	0.247082	0.242295	0.287007	
692000	-47137.740	7.309	0.219427	0.247339	0.238915	0.294319	
693000	-47152.281	7.299	0.219427	0.247339	0.238915	0.294319	
694000	-47146.113	7.305	0.219427	0.247339	0.238915	0.294319	
695000	-47132.558	7.358	0.227930	0.241893	0.233735	0.296442	
696000	-47119.563	7.336	0.223309	0.239568	0.242265	0.294859	
697000	-47108.995	7.279	0.223309	0.239568	0.242265	0.294859	
698000	-47107.541	7.255	0.223309	0.239568	0.242265	0.294859	
699000	-47117.762	7.238	0.223309	0.239568	0.242265	0.294859	
700000	-47135.159	7.320	0.223309	0.239568	0.242265	0.294859	
701000	-47128.543	7.294	0.226667	0.243770	0.243660	0.285903	
702000	-47140.686	7.284	0.216212	0.239702	0.246782	0.297304	
703000	-47128.553	7.313	0.216212	0.239702	0.246782	0.297304	
704000	-47138.237	7.325	0.214507	0.241979	0.240280	0.303235	
705000	-47148.030	7.347	0.228543	0.246477	0.231770	0.293210	
706000	-47150.959	7.384	0.229940	0.241960	0.235454	0.292647	
707000	-47146.507	7.359	0.229258	0.249059	0.234441	0.287242	
708000	-47159.872	7.370	0.229258	0.249059	0.234441	0.287242	
709000	-47152.959	7.357	0.229258	0.249059	0.234441	0.287242	
710000	-47158.896	7.300	0.217169	0.249497	0.233655	0.299679	
711000	-47190.686	7.316	0.221674	0.242242	0.243182	0.292902	
712000	-47173.416	7.394	0.227334	0.239700	0.233836	0.299130	
713000	-47153.484	7.384	0.219056	0.238095	0.243977	0.298872	
714000	-47144.920	7.402	0.225155	0.249431	0.244913	0.280501	
715000	-47129.996	7.387	0.226138	0.255027	0.233637	0.285198	
716000	-47120.152	7.368	0.231740	0.237358	0.243482	0.287420	
717000	-47113.473	7.381	0.229071	0.245455	0.229026	0.296447	
718000	-47136.025	7.381	0.229071	0.245455	0.229026	0.296447	
719000	-47118.055	7.365	0.231310	0.237203	0.239824	0.291662	
720000	-47091.826	7.341	0.231310	0.237203	0.239824	0.291662	
721000	-47068.727	7.365	0.231310	0.237203	0.239824	0.291662	
722000	-47082.946	7.312	0.233416	0.239461	0.243605	0.283518	
723000	-47068.719	7.294	0.233416	0.239461	0.243605	0.283518	
724000	-47074.341	7.282	0.230137	0.242154	0.239521	0.288187	
725000	-47087.181	7.285	0.230137	0.242154	0.239521	0.288187	
726000	-47084.252	7.286	0.230137	0.242154	0.239521	0.288187	
727000	-47082.853	7.247	0.230137	0.242154	0.239521	0.288187	
728000	-47082.397	7.297	0.230137	0.242154	0.239521	0.288187	
729000	-47104.198	7.337	0.230137	0.242154	0.239521	0.288187	
730000	-47102.498	7.360	0.230137	0.242154	0.239521	0.288187	
731000	-47093.327	7.340	0.230137	0.242154	0.239521	0.288187	
732000	-47101.989	7.404	0.230137	0.242154	0.239521	0.288187	
733000	-47070.301	7.412	0.230137	0.242154	0.239521	0.288187	
734000	-47054.502	7.407	0.230137	0.242154	0.239521	0.288187	
735000	-47052.713	7.376	0.230137	0.242154	0.239521	0.288187	
736000	-47050.529	7.365	0.230137	0.242154	0.239521	0.288187	
737000	-47054.607	7.410	0.223745	0.243922	0.238576	0.293757	
738000	-47061.106	7.413	0.223745	0.243922	0.238576	0.293757	
739000	-47091.592	7.452	0.223745	0.243922	0.238576	0.293757	
740000	-47089.910	7.426	0.223745	0.243922	0.238576	0.293757	
741000	-47065.674	7.349	0.223745	0.243922	0.238576	0.293757	
742000	-47063.170	7.309	0.223745	0.243922	0.238576	0.293757	
743000	-47070.689	7.260	0.223745	0.243922	0.238576	0.293757	
744000	-47070.081	7.369	0.223745	0.243922	0.238576	0.293757	
745000	-47072.024	7.364	0.223745	0.243922	0.238576	0.293757	
746000	-47067.191	7.309	0.223745	0.243922	0.238576	0.293757	
747000	-47084.011	7.284	0.223745	0.243922	0.238576	0.293757	
748000	-47077.569	7.282	0.229271	0.241653	0.239675	0.289401	
749000	-47109.044	7.297	0.230918	0.236546	0.245032	0.287504	
750000	-47101.083	7.213	0.217644	0.240205	0.239317	0.302834	
751000	-47093.433	7.182	0.225649	0.248417	0.239355	0.286579	
752000	-47091.860	7.212	0.225649	0.248417	0.239355	0.286579	
753000	-47088.660	7.210	0.225649	0.248417	0.239355	0.286579	
754000	-47088.760	7.202	0.225649	0.248417	0.239355	0.286579	
755000	-47111.553	7.196	0.219047	0.249556	0.233687	0.297710	
756000	-47100.361	7.156	0.220510	0.236338	0.241982	0.301169	
757000	-47078.475	7.200	0.231837	0.241622	0.232963	0.293578	
758000	-47075.680	7.247	0.224008	0.243873	0.249034	0.283085	
759000	-47101.655	7.171	0.224008	0.243873	0.249034	0.283085	
760000	-47096.148	7.154	0.229480	0.241810	0.239912	0.288799	
761000	-47078.185	7.127	0.229480	0.241810	0.239912	0.288799	
762000	-47059.568	7.128	0.229480	0.241810	0.239912	0.288799	
763000	-47057.147	7.133	0.229480	0.241810	0.239912	0.288799	
764000	-47085.117	7.163	0.230375	0.244655	0.241758	0.283212	
765000	-47083.565	7.186	0.230375	0.244655	0.241758	0.283212	
766000	-47087.647	7.174	0.232405	0.250314	0.236200	0.281081	
767000	-47090.759	7.165	0.232405	0.250314	0.236200	0.281081	
768000	-47106.923	7.182	0.225576	0.243363	0.239222	0.291838	
769000	-47096.525	7.179	0.225576	0.243363	0.239222	0.291838	
770000	-47113.607	7.172	0.225576	0.243363	0.239222	0.291838	
771000	-47113.804	7.094	0.225576	0.243363	0.239222	0.291838	
772000	-47092.297	7.074	0.225576	0.243363	0.239222	0.291838	
773000	-47088.371	7.108	0.227216	0.252867	0.240323	0.279594	
774000	-47091.327	7.153	0.232170	0.253648	0.231953	0.282229	
775000	-47074.324	7.169	0.222412	0.248391	0.232421	0.296776	
776000	-47087.050	7.192	0.222412	0.248391	0.232421	0.296776	
777000	-47075.104	7.177	0.232295	0.238287	0.244447	0.284971	
778000	-47060.438	7.235	0.232295	0.238287	0.244447	0.284971	
779000	-47074.948	7.278	0.232295	0.238287	0.244447	0.284971	
780000	-47071.597	7.271	0.221054	0.243212	0.245289	0.290444	
781000	-47053.099	7.237	0.224357	0.247785	0.241191	0.286666	
782000	-47063.313	7.286	0.224357	0.247785	0.241191	0.286666	
783000	-47071.476	7.255	0.224357	0.247785	0.241191	0.286666	
784000	-47062.802	7.213	0.224357	0.247785	0.241191	0.286666	
785000	-47053.105	7.219	0.230854	0.241688	0.234043	0.293415	
786000	-47069.610	7.261	0.235298	0.246510	0.238591	0.279601	
787000	-47044.327	7.221	0.214882	0.245377	0.247190	0.292551	
788000	-47047.316	7.261	0.236622	0.237783	0.235412	0.290183	
789000	-47051.828	7.261	0.227886	0.237917	0.236901	0.297296	
790000	-47037.889	7.260	0.227886	0.237917	0.236901	0.297296	
791000	-47034.661	7.244	0.227886	0.237917	0.236901	0.297296	
792000	-47034.290	7.229	0.229619	0.245564	0.231141	0.293676	
793000	-47023.865	7.241	0.220876	0.247630	0.237832	0.293662	
794000	-47026.902	7.247	0.233615	0.241612	0.236716	0.288058	
795000	-47037.701	7.239	0.221222	0.250448	0.251197	0.277134	
796000	-47042.638	7.226	0.219210	0.242611	0.249437	0.288743	
797000	-47057.100	7.185	0.236938	0.244522	0.236612	0.281928	
798000	-47065.607	7.198	0.236938	0.244522	0.236612	0.281928	
799000	-47058.930	7.232	0.236938	0.244522	0.236612	0.281928	
800000	-47054.906	7.232	0.236938	0.244522	0.236612	0.281928	
801000	-47076.230	7.254	0.236938	0.244522	0.236612	0.281928	
802000	-47077.919	7.291	0.236938	0.244522	0.236612	0.281928	
803000	-47079.247	7.279	0.234761	0.242768	0.240876	0.281595	
804000	-47078.890	7.275	0.226653	0.236984	0.247261	0.289101	
805000	-47050.544	7.221	0.222649	0.240156	0.244935	0.292260	
806000	-47052.516	7.244	0.229302	0.249727	0.236585	0.284385	
807000	-47045.312	7.226	0.230823	0.239943	0.234419	0.294815	
808000	-47054.541	7.235	0.235541	0.242085	0.234514	0.287860	
809000	-47064.118	7.255	0.235541	0.242085	0.234514	0.287860	
810000	-47055.214	7.254	0.229126	0.239559	0.239845	0.291470	
811000	-47064.079	7.276	0.229126	0.239559	0.239845	0.291470	
812000	-47081.529	7.301	0.229126	0.239559	0.239845	0.291470	
813000	-47055.067	7.227	0.229126	0.239559	0.239845	0.291470	
814000	-47036.186	7.273	0.229126	0.239559	0.239845	0.291470	
815000	-47047.433	7.309	0.229126	0.239559	0.239845	0.291470	
816000	-47043.942	7.310	0.228389	0.239789	0.244947	0.286874	
817000	-47039.927	7.258	0.226597	0.245322	0.241048	0.287032	
818000	-47041.132	7.248	0.226597	0.245322	0.241048	0.287032	
819000	-47026.805	7.242	0.226597	0.245322	0.241048	0.287032	
820000	-47037.975	7.254	0.226597	0.245322	0.241048	0.287032	
821000	-47038.360	7.267	0.226597	0.245322	0.241048	0.287032	
822000	-47026.031	7.285	0.232150	0.243502	0.238007	0.286341	
823000	-47022.393	7.267	0.232150	0.243502	0.238007	0.286341	
824000	-47016.806	7.206	0.222523	0.245334	0.243161	0.288982	
825000	-47022.565	7.186	0.222523	0.245334	0.243161	0.288982	
826000	-47042.704	7.144	0.222523	0.245334	0.243161	0.288982	
827000	-47052.844	7.182	0.222523	0.245334	0.243161	0.288982	
828000	-47041.484	7.226	0.222523	0.245334	0.243161	0.288982	
829000	-47051.317	7.236	0.232251	0.240426	0.234191	0.293131	
830000	-47054.373	7.236	0.232762	0.245356	0.231649	0.290233	
831000	-47061.741	7.237	0.232762	0.245356	0.231649	0.290233	
832000	-47052.698	7.165	0.234758	0.248707	0.230237	0.286299	
833000	-47028.508	7.147	0.234758	0.248707	0.230237	0.286299	
834000	-47032.489	7.168	0.235098	0.249828	0.234265	0.280810	
835000	-47030.070	7.193	0.219480	0.245691	0.240702	0.294127	
836000	-47018.457	7.105	0.224212	0.251845	0.238501	0.285442	
837000	-47026.166	7.133	0.221921	0.253098	0.238235	0.286746	
838000	-47036.296	7.180	0.221921	0.253098	0.238235	0.286746	
839000	-47041.174	7.173	0.224608	0.253311	0.240292	0.281790	
840000	-47040.140	7.194	0.224608	0.253311	0.240292	0.281790	
841000	-47035.115	7.210	0.221544	0.250175	0.240676	0.287605	
842000	-47039.233	7.264	0.236547	0.246828	0.236553	0.280073	
843000	-47066.214	7.311	0.226203	0.252585	0.232745	0.288467	
844000	-47063.132	7.353	0.221810	0.248378	0.230779	0.299033	
845000	-47068.574	7.361	0.235889	0.240109	0.238435	0.285567	
846000	-47061.816	7.371	0.217518	0.239022	0.242952	0.300508	
847000	-47066.839	7.384	0.224584	0.246763	0.235327	0.293326	
848000	-47060.039	7.359	0.224952	0.247726	0.238148	0.289174	
849000	-47051.338	7.335	0.224730	0.245340	0.240843	0.289087	
850000	-47029.189	7.276	0.224730	0.245340	0.240843	0.289087	
851000	-47026.818	7.231	0.224730	0.245340	0.240843	0.289087	
852000	-47033.494	7.238	0.224730	0.245340	0.240843	0.289087	
853000	-47062.415	7.249	0.224730	0.245340	0.240843	0.289087	
854000	-47050.165	7.252	0.224730	0.245340	0.240843	0.289087	
855000	-47043.337	7.177	0.224730	0.245340	0.240843	0.289087	
856000	-47056.409	7.238	0.224730	0.245340	0.240843	0.289087	
857000	-47038.484	7.219	0.234142	0.243400	0.236461	0.285996	
858000	-47035.015	7.194	0.224565	0.250948	0.234632	0.289856	
859000	-47038.696	7.164	0.224565	0.250948	0.234632	0.289856	
860000	-47043.092	7.187	0.224565	0.250948	0.234632	0.289856	
861000	-47062.566	7.115	0.224565	0.250948	0.234632	0.289856	
862000	-47053.595	7.136	0.231288	0.249609	0.229720	0.289383	
863000	-47051.759	7.204	0.219825	0.243626	0.244042	0.292506	
864000	-47053.036	7.210	0.219825	0.243626	0.244042	0.292506	
865000	-47057.232	7.203	0.219825	0.243626	0.244042	0.292506	
866000	-47038.221	7.241	0.219825	0.243626	0.244042	0.292506	
867000	-47046.794	7.312	0.219825	0.243626	0.244042	0.292506	
868000	-47059.381	7.305	0.223796	0.257513	0.238671	0.280020	
869000	-47067.448	7.335	0.223147	0.249246	0.237903	0.289703	
870000	-47092.188	7.271	0.223147	0.249246	0.237903	0.289703	
871000	-47083.478	7.238	0.223978	0.252024	0.241105	0.282893	
872000	-47091.518	7.236	0.223978	0.252024	0.241105	0.282893	
873000	-47109.785	7.248	0.219596	0.249957	0.238367	0.292080	
874000	-47097.033	7.248	0.219596	0.249957	0.238367	0.292080	
875000	-47100.989	7.204	0.227206	0.241349	0.234296	0.297149	
876000	-47109.683	7.202	0.221142	0.244982	0.245046	0.288829	
877000	-47132.519	7.271	0.221815	0.258506	0.236568	0.283111	
878000	-47124.805	7.246	0.216860	0.243253	0.251766	0.288121	
879000	-47112.727	7.222	0.226596	0.242993	0.228171	0.302240	
880000	-47100.169	7.207	0.228358	0.252237	0.231533	0.287872	
881000	-47097.468	7.195	0.223445	0.254724	0.234295	0.287535	
882000	-47091.193	7.221	0.229781	0.244437	0.239828	0.285954	
883000	-47085.573	7.254	0.229781	0.244437	0.239828	0.285954	
884000	-47072.348	7.245	0.227036	0.232993	0.245821	0.294150	
885000	-47061.640	7.234	0.226422	0.243402	0.238973	0.291203	
886000	-47064.336	7.285	0.226422	0.243402	0.238973	0.291203	
887000	-47069.595	7.272	0.226422	0.243402	0.238973	0.291203	
888000	-47059.503	7.283	0.226422	0.243402	0.238973	0.291203	
889000	-47065.061	7.252	0.226113	0.249979	0.231522	0.292386	
890000	-47054.723	7.254	0.226113	0.249979	0.231522	0.292386	
891000	-47047.114	7.244	0.231560	0.245604	0.237039	0.285797	
892000	-47043.915	7.222	0.231560	0.245604	0.237039	0.285797	
893000	-47058.908	7.274	0.225415	0.248562	0.233173	0.292850	
894000	-47052.390	7.264	0.220923	0.245488	0.234168	0.299421	
895000	-47052.154	7.206	0.230132	0.243206	0.232474	0.294188	
896000	-47056.286	7.212	0.231608	0.244735	0.236770	0.286887	
897000	-47076.150	7.207	0.230073	0.243805	0.241324	0.284799	
898000	-47080.764	7.218	0.229667	0.247302	0.230665	0.292365	
899000	-47071.580	7.187	0.236198	0.242416	0.234782	0.286604	
900000	-47059.118	7.235	0.222933	0.240076	0.239275	0.297716	
901000	-47061.343	7.215	0.219315	0.250038	0.239447	0.291200	
902000	-47055.559	7.199	0.220705	0.241143	0.239187	0.298964	
903000	-47049.131	7.219	0.220705	0.241143	0.239187	0.298964	
904000	-47053.014	7.271	0.220705	0.241143	0.239187	0.298964	
905000	-47034.116	7.253	0.230197	0.243245	0.235288	0.291270	
906000	-47060.906	7.266	0.230197	0.243245	0.235288	0.291270	
907000	-47055.144	7.238	0.229384	0.247997	0.232247	0.290372	
908000	-47071.992	7.278	0.229384	0.247997	0.232247	0.290372	
909000	-47060.295	7.271	0.227251	0.238182	0.238017	0.296549	
910000	-47057.814	7.303	0.227251	0.238182	0.238017	0.296549	
911000	-47061.227	7.270	0.221839	0.245121	0.238588	0.294452	
912000	-47055.329	7.254	0.221839	0.245121	0.238588	0.294452	
913000	-47055.486	7.237	0.226981	0.246094	0.233897	0.293028	
914000	-47055.568	7.277	0.227220	0.250557	0.237046	0.285176	
915000	-47055.629	7.289	0.235320	0.234870	0.238470	0.291340	
916000	-47061.335	7.270	0.239582	0.240407	0.240132	0.279879	
917000	-47059.710	7.245	0.239582	0.240407	0.240132	0.279879	
918000	-47057.817	7.276	0.224614	0.250561	0.232079	0.292745	
919000	-47044.722	7.269	0.222160	0.252757	0.238965	0.286119	
920000	-47035.378	7.338	0.234033	0.243492	0.236397	0.286078	
921000	-47025.801	7.273	0.230643	0.242599	0.241253	0.285505	
922000	-47018.598	7.286	0.224622	0.243589	0.245464	0.286324	
923000	-47018.036	7.314	0.228966	0.249052	0.231291	0.290691	
924000	-47030.325	7.368	0.223369	0.242070	0.242070	0.292491	
925000	-47029.139	7.389	0.223369	0.242070	0.242070	0.292491	
926000	-47042.699	7.403	0.223369	0.242070	0.242070	0.292491	
927000	-47043.262	7.380	0.223369	0.242070	0.242070	0.292491	
928000	-47047.233	7.353	0.223369	0.242070	0.242070	0.292491	
929000	-47037.843	7.339	0.229141	0.241226	0.239370	0.290263	
930000	-47024.588	7.292	0.229141	0.241226	0.239370	0.290263	
931000	-47024.458	7.270	0.229141	0.241226	0.239370	0.290263	
932000	-47055.159	7.278	0.227776	0.246787	0.238847	0.286590	
933000	-47064.186	7.305	0.227776	0.246787	0.238847	0.286590	
934000	-47069.482	7.355	0.227776	0.246787	0.238847	0.286590	
935000	-47068.883	7.347	0.227776	0.246787	0.238847	0.286590	
936000	-47074.844	7.333	0.227776	0.246787	0.238847	0.286590	
937000	-47086.278	7.333	0.227776	0.246787	0.238847	0.286590	
938000	-47095.691	7.382	0.225409	0.238261	0.244805	0.291524	
939000	-47081.137	7.358	0.230838	0.247179	0.237082	0.284901	
940000	-47067.918	7.313	0.230838	0.247179	0.237082	0.284901	
941000	-47062.494	7.290	0.230838	0.247179	0.237082	0.284901	
942000	-47056.349	7.296	0.230838	0.247179	0.237082	0.284901	
943000	-47032.838	7.287	0.230838	0.247179	0.237082	0.284901	
944000	-47028.708	7.271	0.230838	0.247179	0.237082	0.284901	
945000	-47041.897	7.297	0.230838	0.247179	0.237082	0.284901	
946000	-47018.213	7.312	0.230838	0.247179	0.237082	0.284901	
947000	-47012.019	7.284	0.230838	0.247179	0.237082	0.284901	
948000	-47016.919	7.295	0.230539	0.236595	0.244479	0.288387	
949000	-47009.840	7.246	0.230539	0.236595	0.244479	0.288387	
950000	-47016.171	7.279	0.227803	0.246166	0.232639	0.293392	
951000	-47028.823	7.287	0.227803	0.246166	0.232639	0.293392	
952000	-47048.730	7.266	0.227803	0.246166	0.232639	0.293392	
953000	-47044.554	7.255	0.224008	0.244185	0.245813	0.285994	
954000	-47029.688	7.234	0.224008	0.244185	0.245813	0.285994	
955000	-47048.434	7.242	0.224008	0.244185	0.245813	0.285994	
956000	-47054.964	7.288	0.224008	0.244185	0.245813	0.285994	
957000	-47059.211	7.313	0.236637	0.243124	0.237331	0.282908	
958000	-47068.979	7.371	0.236637	0.243124	0.237331	0.282908	
959000	-47074.916	7.352	0.236637	0.243124	0.237331	0.282908	
960000	-47086.457	7.375	0.228973	0.245127	0.240101	0.285798	
961000	-47096.577	7.388	0.228973	0.245127	0.240101	0.285798	
962000	-47100.027	7.343	0.229933	0.235156	0.233233	0.301677	
963000	-47070.554	7.347	0.227829	0.235067	0.239107	0.297997	
964000	-47060.834	7.367	0.225184	0.243358	0.240359	0.291099	
965000	-47073.219	7.357	0.224999	0.241868	0.234117	0.299016	
966000	-47078.047	7.398	0.226672	0.246547	0.241058	0.285723	
967000	-47061.552	7.382	0.226672	0.246547	0.241058	0.285723	
968000	-47063.049	7.354	0.235375	0.241952	0.237883	0.284790	
969000	-47055.239	7.335	0.237299	0.243719	0.235628	0.283355	
970000	-47060.142	7.337	0.237299	0.243719	0.235628	0.283355	
971000	-47073.875	7.326	0.237299	0.243719	0.235628	0.283355	
972000	-47087.169	7.359	0.230555	0.248875	0.233974	0.286596	
973000	-47087.777	7.308	0.230555	0.248875	0.233974	0.286596	
974000	-47079.720	7.305	0.230555	0.248875	0.233974	0.286596	
975000	-47063.477	7.238	0.225060	0.244629	0.240081	0.290230	
976000	-47070.548	7.254	0.225060	0.244629	0.240081	0.290230	
977000	-47083.482	7.273	0.234245	0.253224	0.236427	0.276105	
978000	-47096.829	7.249	0.223506	0.242931	0.248415	0.285148	
979000	-47083.978	7.328	0.223506	0.242931	0.248415	0.285148	
980000	-47096.279	7.338	0.220635	0.239485	0.236665	0.303215	
981000	-47099.939	7.348	0.222555	0.241240	0.247991	0.288215	
982000	-47094.044	7.327	0.226384	0.250336	0.237099	0.286181	
983000	-47111.164	7.351	0.226384	0.250336	0.237099	0.286181	
984000	-47093.321	7.339	0.226384	0.250336	0.237099	0.286181	
985000	-47108.121	7.350	0.226384	0.250336	0.237099	0.286181	
986000	-47114.326	7.315	0.222662	0.256129	0.238043	0.283165	
987000	-47109.484	7.262	0.212929	0.249097	0.245363	0.292611	
988000	-47093.168	7.262	0.226077	0.246550	0.241202	0.286172	
989000	-47071.286	7.294	0.225211	0.247016	0.238880	0.288893	
990000	-47070.989	7.298	0.225211	0.247016	0.238880	0.288893	
991000	-47072.097	7.276	0.225211	0.247016	0.238880	0.288893	
992000	-47056.556	7.315	0.225211	0.247016	0.238880	0.288893	
993000	-47068.559	7.318	0.225211	0.247016	0.238880	0.288893	
994000	-47055.587	7.311	0.234070	0.245225	0.237610	0.283095	
995000	-47047.282	7.316	0.228971	0.249731	0.235572	0.285725	
996000	-47027.832	7.289	0.228971	0.249731	0.235572	0.285725	
997000	-47025.281	7.300	0.217251	0.247401	0.248027	0.287322	
998000	-47028.944	7.342	0.228798	0.248476	0.232097	0.290630	
999000	-47035.065	7.326	0.228734	0.237496	0.246101	0.287669	
1000000	-47050.547	7.339	0.228734	0.237496	0.246101	0.287669	
