[ID: 6262122611]
Gen	LnL	TL	pi(A)	pi(C)	pi(G)	pi(T)	
1	-335056.558	108.521	0.250000	0.250000	0.250000	0.250000	
1000	-312791.457	104.468	0.215135	0.218072	0.213701	0.353093	
2000	-295881.691	98.965	0.227623	0.208932	0.220074	0.343371	
3000	-280293.403	94.945	0.227623	0.208932	0.220074	0.343371	
4000	-267629.333	90.627	0.227623	0.208932	0.220074	0.343371	
5000	-257590.510	87.277	0.227623	0.208932	0.220074	0.343371	
6000	-247226.567	82.991	0.227623	0.208932	0.220074	0.343371	
7000	-236562.142	79.391	0.223601	0.213203	0.217457	0.345739	
8000	-228746.055	76.359	0.223601	0.213203	0.217457	0.345739	
9000	-221473.787	72.836	0.223601	0.213203	0.217457	0.345739	
10000	-215780.133	69.751	0.223601	0.213203	0.217457	0.345739	
11000	-209826.751	67.255	0.223267	0.210365	0.214144	0.352224	
12000	-203443.288	63.319	0.223267	0.210365	0.214144	0.352224	
13000	-198641.642	61.003	0.217809	0.212793	0.216287	0.353110	
14000	-194408.474	58.522	0.217809	0.212793	0.216287	0.353110	
15000	-190076.655	55.925	0.217809	0.212793	0.216287	0.353110	
16000	-185277.947	55.289	0.214541	0.212691	0.229332	0.343436	
17000	-181096.164	52.962	0.214541	0.212691	0.229332	0.343436	
18000	-176164.762	50.604	0.212963	0.217365	0.233901	0.335771	
19000	-172476.425	48.794	0.204560	0.222044	0.228321	0.345075	
20000	-168758.436	46.087	0.218220	0.217795	0.213856	0.350128	
21000	-165389.970	44.657	0.218220	0.217795	0.213856	0.350128	
22000	-162255.779	43.220	0.218220	0.217795	0.213856	0.350128	
23000	-158422.416	41.702	0.218220	0.217795	0.213856	0.350128	
24000	-155013.488	40.482	0.218220	0.217795	0.213856	0.350128	
25000	-151183.348	38.686	0.211395	0.221844	0.230601	0.336160	
26000	-148773.853	37.505	0.211395	0.221844	0.230601	0.336160	
27000	-145277.209	36.434	0.211395	0.221844	0.230601	0.336160	
28000	-143346.926	35.872	0.211395	0.221844	0.230601	0.336160	
29000	-141203.183	34.700	0.211395	0.221844	0.230601	0.336160	
30000	-138542.337	33.455	0.214325	0.228887	0.212521	0.344266	
31000	-136491.228	32.547	0.216132	0.231446	0.218908	0.333514	
32000	-134772.666	31.860	0.216132	0.231446	0.218908	0.333514	
33000	-133162.398	30.941	0.216132	0.231446	0.218908	0.333514	
34000	-131168.868	29.958	0.216132	0.231446	0.218908	0.333514	
35000	-129370.421	29.565	0.216132	0.231446	0.218908	0.333514	
36000	-127843.779	28.918	0.204780	0.235012	0.221465	0.338743	
37000	-126364.325	28.679	0.212806	0.234883	0.217273	0.335037	
38000	-124532.312	28.238	0.212806	0.234883	0.217273	0.335037	
39000	-122299.729	27.887	0.202163	0.231742	0.223659	0.342436	
40000	-120883.906	27.403	0.208575	0.229355	0.226176	0.335894	
41000	-119927.950	26.821	0.208575	0.229355	0.226176	0.335894	
42000	-118930.559	26.195	0.206567	0.237707	0.227262	0.328464	
43000	-117894.925	25.800	0.206567	0.237707	0.227262	0.328464	
44000	-116509.165	25.502	0.206567	0.237707	0.227262	0.328464	
45000	-114800.698	25.089	0.206567	0.237707	0.227262	0.328464	
46000	-113646.608	24.720	0.206567	0.237707	0.227262	0.328464	
47000	-112693.305	24.324	0.206567	0.237707	0.227262	0.328464	
48000	-111674.088	23.878	0.206567	0.237707	0.227262	0.328464	
49000	-110784.898	23.471	0.206567	0.237707	0.227262	0.328464	
50000	-109488.340	23.140	0.206567	0.237707	0.227262	0.328464	
51000	-107833.898	22.678	0.206567	0.237707	0.227262	0.328464	
52000	-107294.474	22.194	0.206567	0.237707	0.227262	0.328464	
53000	-106512.539	22.013	0.206567	0.237707	0.227262	0.328464	
54000	-105878.001	21.579	0.206567	0.237707	0.227262	0.328464	
55000	-105082.684	21.237	0.206567	0.237707	0.227262	0.328464	
56000	-104438.363	21.007	0.206567	0.237707	0.227262	0.328464	
57000	-103690.224	20.596	0.206567	0.237707	0.227262	0.328464	
58000	-102606.988	20.380	0.206567	0.237707	0.227262	0.328464	
59000	-102194.122	20.379	0.208465	0.241454	0.227778	0.322303	
60000	-101429.452	20.077	0.208465	0.241454	0.227778	0.322303	
61000	-100999.478	19.754	0.208465	0.241454	0.227778	0.322303	
62000	-100646.719	19.365	0.208465	0.241454	0.227778	0.322303	
63000	-100089.471	19.112	0.208465	0.241454	0.227778	0.322303	
64000	-99502.739	19.165	0.208465	0.241454	0.227778	0.322303	
65000	-99015.105	18.837	0.208465	0.241454	0.227778	0.322303	
66000	-98667.614	18.694	0.208465	0.241454	0.227778	0.322303	
67000	-98445.602	18.445	0.208465	0.241454	0.227778	0.322303	
68000	-97894.354	18.310	0.208465	0.241454	0.227778	0.322303	
69000	-97345.475	18.227	0.207440	0.242686	0.232475	0.317400	
70000	-97174.987	18.235	0.207440	0.242686	0.232475	0.317400	
71000	-96976.359	18.002	0.207440	0.242686	0.232475	0.317400	
72000	-96311.410	17.782	0.207440	0.242686	0.232475	0.317400	
73000	-95759.797	17.861	0.207440	0.242686	0.232475	0.317400	
74000	-95481.802	17.765	0.207440	0.242686	0.232475	0.317400	
75000	-94751.321	18.745	0.204128	0.238325	0.227094	0.330453	
76000	-93751.409	18.592	0.204128	0.238325	0.227094	0.330453	
77000	-92890.181	18.193	0.214233	0.232889	0.219626	0.333251	
78000	-92129.539	18.105	0.214233	0.232889	0.219626	0.333251	
79000	-91648.809	17.828	0.214233	0.232889	0.219626	0.333251	
80000	-90869.509	17.513	0.207953	0.233568	0.229263	0.329216	
81000	-90437.462	17.518	0.213849	0.232148	0.223613	0.330390	
82000	-90157.039	17.252	0.213849	0.232148	0.223613	0.330390	
83000	-89698.223	17.176	0.213849	0.232148	0.223613	0.330390	
84000	-89510.780	17.092	0.213849	0.232148	0.223613	0.330390	
85000	-89111.726	16.909	0.214633	0.239759	0.225954	0.319653	
86000	-88908.168	16.797	0.214633	0.239759	0.225954	0.319653	
87000	-88656.360	16.730	0.214633	0.239759	0.225954	0.319653	
88000	-88230.769	16.496	0.208493	0.234316	0.225699	0.331492	
89000	-87854.199	16.254	0.208493	0.234316	0.225699	0.331492	
90000	-87334.481	16.080	0.208493	0.234316	0.225699	0.331492	
91000	-86860.190	16.061	0.208493	0.234316	0.225699	0.331492	
92000	-86367.554	15.972	0.215246	0.232518	0.227902	0.324333	
93000	-86169.691	15.969	0.215246	0.232518	0.227902	0.324333	
94000	-85616.522	15.934	0.215246	0.232518	0.227902	0.324333	
95000	-85317.233	15.816	0.215246	0.232518	0.227902	0.324333	
96000	-84829.257	15.667	0.215246	0.232518	0.227902	0.324333	
97000	-83988.615	15.613	0.215246	0.232518	0.227902	0.324333	
98000	-83728.163	15.646	0.215246	0.232518	0.227902	0.324333	
99000	-83612.046	15.543	0.215246	0.232518	0.227902	0.324333	
100000	-83335.953	15.444	0.215246	0.232518	0.227902	0.324333	
101000	-82885.646	15.403	0.213884	0.231127	0.232743	0.322247	
102000	-82624.371	15.322	0.213884	0.231127	0.232743	0.322247	
103000	-82409.622	15.348	0.207675	0.236545	0.225831	0.329949	
104000	-82205.650	15.219	0.207675	0.236545	0.225831	0.329949	
105000	-81818.290	15.037	0.207675	0.236545	0.225831	0.329949	
106000	-81500.694	14.904	0.207675	0.236545	0.225831	0.329949	
107000	-81206.317	14.883	0.216026	0.230265	0.230172	0.323536	
108000	-80928.376	14.775	0.216026	0.230265	0.230172	0.323536	
109000	-80671.721	14.778	0.214527	0.226815	0.231628	0.327031	
110000	-80349.444	14.584	0.214527	0.226815	0.231628	0.327031	
111000	-80137.349	14.531	0.214527	0.226815	0.231628	0.327031	
112000	-79972.226	14.409	0.214527	0.226815	0.231628	0.327031	
113000	-79820.004	14.437	0.214166	0.226574	0.227105	0.332155	
114000	-79521.747	14.412	0.214166	0.226574	0.227105	0.332155	
115000	-79322.952	14.343	0.222182	0.231908	0.226218	0.319693	
116000	-79144.758	14.304	0.209352	0.231657	0.233430	0.325561	
117000	-78989.012	14.269	0.209352	0.231657	0.233430	0.325561	
118000	-78819.352	14.215	0.209352	0.231657	0.233430	0.325561	
119000	-78763.798	14.195	0.217814	0.235114	0.219854	0.327218	
120000	-78622.171	14.073	0.209337	0.230017	0.231019	0.329626	
121000	-78455.129	14.087	0.209337	0.230017	0.231019	0.329626	
122000	-78313.537	13.928	0.218965	0.234194	0.229347	0.317495	
123000	-78263.953	13.993	0.218965	0.234194	0.229347	0.317495	
124000	-78184.973	13.869	0.218965	0.234194	0.229347	0.317495	
125000	-78136.135	13.820	0.218965	0.234194	0.229347	0.317495	
126000	-78101.483	13.797	0.218965	0.234194	0.229347	0.317495	
127000	-78046.381	13.716	0.218965	0.234194	0.229347	0.317495	
128000	-77935.901	13.663	0.218965	0.234194	0.229347	0.317495	
129000	-77877.477	13.676	0.217739	0.235851	0.232721	0.313690	
130000	-77669.024	13.664	0.217739	0.235851	0.232721	0.313690	
131000	-77480.831	13.445	0.217739	0.235851	0.232721	0.313690	
132000	-77260.517	13.415	0.216906	0.237777	0.230186	0.315132	
133000	-76891.647	13.299	0.216906	0.237777	0.230186	0.315132	
134000	-76800.188	13.232	0.216906	0.237777	0.230186	0.315132	
135000	-76716.091	13.211	0.214429	0.238041	0.228555	0.318975	
136000	-76679.944	13.204	0.214429	0.238041	0.228555	0.318975	
137000	-76375.908	13.915	0.209516	0.247558	0.227366	0.315560	
138000	-76143.473	13.794	0.209516	0.247558	0.227366	0.315560	
139000	-75814.936	13.716	0.216578	0.242311	0.228220	0.312891	
140000	-75522.133	13.632	0.216578	0.242311	0.228220	0.312891	
141000	-75343.249	13.629	0.216578	0.242311	0.228220	0.312891	
142000	-74799.180	13.453	0.216578	0.242311	0.228220	0.312891	
143000	-74578.287	13.197	0.216578	0.242311	0.228220	0.312891	
144000	-74531.907	13.199	0.216578	0.242311	0.228220	0.312891	
145000	-74429.413	13.066	0.216578	0.242311	0.228220	0.312891	
146000	-74243.168	12.901	0.218081	0.245134	0.226868	0.309917	
147000	-74037.230	12.819	0.218081	0.245134	0.226868	0.309917	
148000	-73775.225	12.860	0.218081	0.245134	0.226868	0.309917	
149000	-73644.398	12.706	0.218166	0.241182	0.238337	0.302316	
150000	-73477.730	12.653	0.218166	0.241182	0.238337	0.302316	
151000	-73385.521	12.567	0.218166	0.241182	0.238337	0.302316	
152000	-73337.800	12.482	0.218935	0.247419	0.231284	0.302362	
153000	-73217.153	12.427	0.218935	0.247419	0.231284	0.302362	
154000	-73173.324	12.439	0.218935	0.247419	0.231284	0.302362	
155000	-73116.199	12.423	0.218935	0.247419	0.231284	0.302362	
156000	-73040.647	12.356	0.218935	0.247419	0.231284	0.302362	
157000	-72970.435	12.463	0.218935	0.247419	0.231284	0.302362	
158000	-72920.743	12.499	0.218935	0.247419	0.231284	0.302362	
159000	-72912.034	12.513	0.216160	0.245290	0.235783	0.302767	
160000	-72876.024	12.474	0.216160	0.245290	0.235783	0.302767	
161000	-72855.541	12.410	0.216160	0.245290	0.235783	0.302767	
162000	-72827.319	12.360	0.216160	0.245290	0.235783	0.302767	
163000	-72803.917	12.281	0.216160	0.245290	0.235783	0.302767	
164000	-72655.168	12.618	0.221702	0.244875	0.230527	0.302896	
165000	-72457.050	12.609	0.221702	0.244875	0.230527	0.302896	
166000	-72084.884	12.648	0.211788	0.251668	0.235268	0.301276	
167000	-71980.344	12.526	0.211788	0.251668	0.235268	0.301276	
168000	-71677.355	12.330	0.222341	0.244589	0.237824	0.295246	
169000	-71454.654	12.286	0.220731	0.242406	0.231320	0.305543	
170000	-71249.713	12.090	0.203694	0.246770	0.237520	0.312016	
171000	-71177.359	12.194	0.220584	0.247247	0.237666	0.294503	
172000	-71043.273	12.063	0.220584	0.247247	0.237666	0.294503	
173000	-70947.317	12.051	0.211673	0.245726	0.244549	0.298052	
174000	-70867.329	12.078	0.221481	0.236502	0.231700	0.310317	
175000	-70696.559	12.064	0.210481	0.252901	0.238776	0.297843	
176000	-70524.648	12.662	0.214400	0.238344	0.230071	0.317185	
177000	-70311.051	12.671	0.207898	0.229992	0.230367	0.331743	
178000	-69945.714	12.428	0.213969	0.234206	0.227606	0.324219	
179000	-69793.268	12.554	0.213969	0.234206	0.227606	0.324219	
180000	-69540.557	12.404	0.209653	0.228462	0.234979	0.326905	
181000	-69370.899	12.181	0.209653	0.228462	0.234979	0.326905	
182000	-69227.111	12.201	0.209653	0.228462	0.234979	0.326905	
183000	-69128.055	12.023	0.214311	0.230523	0.236435	0.318731	
184000	-69008.164	11.550	0.218699	0.251429	0.232984	0.296887	
185000	-68954.862	11.627	0.218699	0.251429	0.232984	0.296887	
186000	-68863.724	11.582	0.227744	0.243593	0.239331	0.289332	
187000	-68697.075	11.498	0.216492	0.251799	0.238442	0.293267	
188000	-68459.797	11.534	0.215334	0.249749	0.238401	0.296516	
189000	-68063.655	11.487	0.214909	0.250091	0.235177	0.299822	
190000	-67865.909	11.344	0.214909	0.250091	0.235177	0.299822	
191000	-67535.387	11.362	0.226895	0.249711	0.223055	0.300339	
192000	-67259.503	11.249	0.230640	0.249211	0.234672	0.285476	
193000	-66755.477	11.247	0.225764	0.242024	0.229245	0.302967	
194000	-65975.115	11.180	0.225764	0.242024	0.229245	0.302967	
195000	-65631.209	11.166	0.222531	0.240876	0.238647	0.297946	
196000	-65189.401	11.044	0.222531	0.240876	0.238647	0.297946	
197000	-65116.965	11.117	0.222531	0.240876	0.238647	0.297946	
198000	-64947.938	11.027	0.222531	0.240876	0.238647	0.297946	
199000	-64832.216	11.053	0.222531	0.240876	0.238647	0.297946	
200000	-64688.341	10.895	0.222531	0.240876	0.238647	0.297946	
201000	-64578.195	10.857	0.222531	0.240876	0.238647	0.297946	
202000	-64494.323	10.798	0.223833	0.249204	0.236620	0.290343	
203000	-64465.302	10.810	0.223833	0.249204	0.236620	0.290343	
204000	-64406.946	10.850	0.216639	0.248218	0.238516	0.296626	
205000	-64325.726	10.797	0.218986	0.251485	0.242346	0.287183	
206000	-64279.047	10.778	0.216586	0.246955	0.240206	0.296254	
207000	-64223.237	10.694	0.216586	0.246955	0.240206	0.296254	
208000	-64154.404	10.612	0.216586	0.246955	0.240206	0.296254	
209000	-64105.441	10.532	0.216586	0.246955	0.240206	0.296254	
210000	-64047.262	10.481	0.221926	0.247093	0.235929	0.295051	
211000	-63925.765	10.517	0.221926	0.247093	0.235929	0.295051	
212000	-63894.789	10.518	0.221926	0.247093	0.235929	0.295051	
213000	-63879.180	10.530	0.221926	0.247093	0.235929	0.295051	
214000	-63851.632	10.499	0.212152	0.251380	0.240915	0.295554	
215000	-63836.122	10.548	0.215999	0.251041	0.234096	0.298865	
216000	-63749.911	10.562	0.215999	0.251041	0.234096	0.298865	
217000	-63471.326	10.561	0.215999	0.251041	0.234096	0.298865	
218000	-63235.211	10.485	0.216527	0.246930	0.240596	0.295947	
219000	-63123.196	10.513	0.222616	0.248447	0.242836	0.286101	
220000	-62903.429	10.495	0.222616	0.248447	0.242836	0.286101	
221000	-62823.682	10.469	0.222616	0.248447	0.242836	0.286101	
222000	-62822.644	10.471	0.223031	0.251919	0.231402	0.293647	
223000	-62403.120	10.385	0.221541	0.254885	0.233501	0.290073	
224000	-62326.297	10.349	0.228246	0.246797	0.232393	0.292564	
225000	-62158.417	10.319	0.228246	0.246797	0.232393	0.292564	
226000	-61838.446	10.350	0.228310	0.247328	0.232293	0.292069	
227000	-61573.427	10.267	0.213280	0.245444	0.243463	0.297812	
228000	-61458.904	10.155	0.213280	0.245444	0.243463	0.297812	
229000	-61123.085	10.061	0.213280	0.245444	0.243463	0.297812	
230000	-60854.753	10.036	0.223886	0.247739	0.237274	0.291102	
231000	-60488.161	9.997	0.222604	0.242077	0.238604	0.296715	
232000	-59836.985	9.947	0.222524	0.244664	0.234922	0.297890	
233000	-59479.444	9.947	0.222524	0.244664	0.234922	0.297890	
234000	-58964.523	9.924	0.222524	0.244664	0.234922	0.297890	
235000	-58833.330	9.947	0.214561	0.242077	0.242159	0.301204	
236000	-58585.883	9.913	0.214561	0.242077	0.242159	0.301204	
237000	-58181.382	9.834	0.214864	0.244296	0.240623	0.300217	
238000	-57985.846	9.902	0.227628	0.234658	0.233219	0.304495	
239000	-57536.027	9.811	0.226222	0.241432	0.220496	0.311850	
240000	-56577.603	9.773	0.218415	0.229258	0.231108	0.321219	
241000	-56182.589	9.648	0.217018	0.229238	0.230063	0.323681	
242000	-55667.568	9.603	0.225821	0.238819	0.225498	0.309862	
243000	-55166.374	9.363	0.225821	0.238819	0.225498	0.309862	
244000	-54769.446	9.315	0.225821	0.238819	0.225498	0.309862	
245000	-54503.399	9.267	0.225821	0.238819	0.225498	0.309862	
246000	-53992.889	9.196	0.225821	0.238819	0.225498	0.309862	
247000	-53760.850	9.167	0.225821	0.238819	0.225498	0.309862	
248000	-53246.470	9.201	0.225821	0.238819	0.225498	0.309862	
249000	-53023.776	9.180	0.231456	0.231645	0.228543	0.308355	
250000	-52914.130	9.111	0.231456	0.231645	0.228543	0.308355	
251000	-52540.946	9.256	0.228625	0.230179	0.230396	0.310801	
252000	-52345.141	9.178	0.228625	0.230179	0.230396	0.310801	
253000	-52147.436	9.211	0.226782	0.238091	0.220677	0.314449	
254000	-52005.154	9.096	0.235288	0.235661	0.224631	0.304419	
255000	-51936.694	9.107	0.231851	0.232802	0.218305	0.317041	
256000	-51595.687	9.028	0.216059	0.237890	0.235620	0.310431	
257000	-51330.125	8.994	0.216059	0.237890	0.235620	0.310431	
258000	-51278.651	8.913	0.225536	0.228251	0.226852	0.319361	
259000	-51196.216	8.893	0.222218	0.232673	0.227303	0.317806	
260000	-51098.223	8.867	0.222218	0.232673	0.227303	0.317806	
261000	-51023.606	8.866	0.216559	0.241551	0.231699	0.310192	
262000	-51001.490	8.786	0.216559	0.241551	0.231699	0.310192	
263000	-50937.873	8.767	0.216559	0.241551	0.231699	0.310192	
264000	-50855.826	8.715	0.220480	0.239914	0.232322	0.307284	
265000	-50826.036	8.730	0.220480	0.239914	0.232322	0.307284	
266000	-50800.686	8.757	0.220480	0.239914	0.232322	0.307284	
267000	-50759.956	8.716	0.220480	0.239914	0.232322	0.307284	
268000	-50620.206	8.737	0.220480	0.239914	0.232322	0.307284	
269000	-50584.880	8.650	0.224277	0.243168	0.224662	0.307893	
270000	-50549.177	8.621	0.225655	0.242387	0.232376	0.299582	
271000	-50543.001	8.625	0.225655	0.242387	0.232376	0.299582	
272000	-50497.500	8.535	0.225655	0.242387	0.232376	0.299582	
273000	-50442.402	8.488	0.233483	0.237491	0.228535	0.300490	
274000	-50408.055	8.474	0.233483	0.237491	0.228535	0.300490	
275000	-50415.828	8.498	0.222169	0.241431	0.233446	0.302954	
276000	-50381.269	8.453	0.222169	0.241431	0.233446	0.302954	
277000	-50388.751	8.450	0.232725	0.239600	0.232000	0.295675	
278000	-50370.674	8.388	0.223389	0.241411	0.229430	0.305769	
279000	-50347.900	8.318	0.223389	0.241411	0.229430	0.305769	
280000	-50320.234	8.309	0.223389	0.241411	0.229430	0.305769	
281000	-50301.908	8.276	0.223389	0.241411	0.229430	0.305769	
282000	-50288.695	8.277	0.219786	0.244417	0.237100	0.298698	
283000	-50261.576	8.230	0.227827	0.244192	0.230440	0.297541	
284000	-50219.819	8.250	0.227827	0.244192	0.230440	0.297541	
285000	-50181.002	8.173	0.227827	0.244192	0.230440	0.297541	
286000	-50210.556	8.202	0.227827	0.244192	0.230440	0.297541	
287000	-50196.029	8.181	0.228841	0.236988	0.235661	0.298510	
288000	-50186.064	8.127	0.228841	0.236988	0.235661	0.298510	
289000	-50184.543	8.095	0.228841	0.236988	0.235661	0.298510	
290000	-50123.889	8.097	0.228841	0.236988	0.235661	0.298510	
291000	-50053.696	8.059	0.228841	0.236988	0.235661	0.298510	
292000	-50036.122	8.072	0.229798	0.238386	0.231763	0.300053	
293000	-49997.714	8.012	0.225151	0.239684	0.240215	0.294949	
294000	-49977.719	8.016	0.228753	0.243716	0.237096	0.290434	
295000	-49961.550	7.988	0.228753	0.243716	0.237096	0.290434	
296000	-49958.028	8.011	0.232313	0.245181	0.238292	0.284214	
297000	-49957.438	7.949	0.226549	0.240121	0.239933	0.293398	
298000	-49969.661	7.880	0.226549	0.240121	0.239933	0.293398	
299000	-49954.202	7.897	0.226549	0.240121	0.239933	0.293398	
300000	-49948.296	7.927	0.226549	0.240121	0.239933	0.293398	
301000	-49922.796	7.924	0.226549	0.240121	0.239933	0.293398	
302000	-49893.181	7.908	0.226549	0.240121	0.239933	0.293398	
303000	-49901.265	7.858	0.226549	0.240121	0.239933	0.293398	
304000	-49901.161	7.895	0.226549	0.240121	0.239933	0.293398	
305000	-49877.801	7.845	0.226549	0.240121	0.239933	0.293398	
306000	-49889.287	7.915	0.226549	0.240121	0.239933	0.293398	
307000	-49830.205	7.916	0.224239	0.248864	0.238510	0.288387	
308000	-49829.857	7.981	0.229727	0.247158	0.228869	0.294245	
309000	-49822.384	7.929	0.229727	0.247158	0.228869	0.294245	
310000	-49793.130	7.891	0.229727	0.247158	0.228869	0.294245	
311000	-49795.160	7.898	0.229727	0.247158	0.228869	0.294245	
312000	-49790.912	7.914	0.223459	0.248768	0.240310	0.287464	
313000	-49778.370	7.917	0.230014	0.238724	0.239024	0.292238	
314000	-49760.810	7.887	0.230014	0.238724	0.239024	0.292238	
315000	-49762.847	7.875	0.224442	0.249227	0.234095	0.292236	
316000	-49766.027	7.896	0.223563	0.246819	0.235634	0.293983	
317000	-49755.121	7.881	0.223563	0.246819	0.235634	0.293983	
318000	-49737.547	7.907	0.223563	0.246819	0.235634	0.293983	
319000	-49719.386	7.908	0.224685	0.242379	0.238521	0.294414	
320000	-49663.745	7.859	0.230613	0.240581	0.235222	0.293584	
321000	-49640.996	7.823	0.230613	0.240581	0.235222	0.293584	
322000	-49621.505	7.789	0.221651	0.238874	0.237028	0.302447	
323000	-49631.278	7.817	0.221651	0.238874	0.237028	0.302447	
324000	-49600.104	7.788	0.221651	0.238874	0.237028	0.302447	
325000	-49585.727	7.809	0.221651	0.238874	0.237028	0.302447	
326000	-49583.370	7.791	0.226005	0.239749	0.235623	0.298623	
327000	-49568.019	7.816	0.226677	0.235695	0.236680	0.300948	
328000	-49578.183	7.848	0.226677	0.235695	0.236680	0.300948	
329000	-49578.686	7.888	0.227702	0.239610	0.229641	0.303047	
330000	-49580.822	7.833	0.217781	0.248630	0.233698	0.299891	
331000	-49568.970	7.843	0.217662	0.246198	0.232687	0.303453	
332000	-49556.480	7.836	0.222365	0.241867	0.240647	0.295121	
333000	-49547.460	7.810	0.222365	0.241867	0.240647	0.295121	
334000	-49559.456	7.841	0.222365	0.241867	0.240647	0.295121	
335000	-49542.264	7.880	0.222365	0.241867	0.240647	0.295121	
336000	-49531.693	7.838	0.222365	0.241867	0.240647	0.295121	
337000	-49543.913	7.873	0.214363	0.250761	0.241740	0.293136	
338000	-49551.197	7.788	0.223603	0.232733	0.241229	0.302434	
339000	-49528.636	7.746	0.223603	0.232733	0.241229	0.302434	
340000	-49513.464	7.758	0.229820	0.241381	0.245727	0.283072	
341000	-49515.175	7.753	0.231557	0.235522	0.233851	0.299070	
342000	-49506.926	7.733	0.231557	0.235522	0.233851	0.299070	
343000	-49495.942	7.721	0.231557	0.235522	0.233851	0.299070	
344000	-49501.135	7.758	0.231557	0.235522	0.233851	0.299070	
345000	-49509.995	7.797	0.231557	0.235522	0.233851	0.299070	
346000	-49502.793	7.774	0.228810	0.243601	0.230620	0.296969	
347000	-49503.128	7.748	0.223114	0.234815	0.235317	0.306754	
348000	-49492.157	7.733	0.222554	0.248589	0.229991	0.298866	
349000	-49523.745	7.743	0.223348	0.243855	0.235477	0.297320	
350000	-49511.617	7.698	0.217495	0.248792	0.226802	0.306911	
351000	-49511.220	7.689	0.230255	0.243434	0.231180	0.295131	
352000	-49506.747	7.689	0.230255	0.243434	0.231180	0.295131	
353000	-49505.533	7.653	0.230255	0.243434	0.231180	0.295131	
354000	-49521.973	7.685	0.230255	0.243434	0.231180	0.295131	
355000	-49529.086	7.670	0.230255	0.243434	0.231180	0.295131	
356000	-49510.828	7.710	0.227954	0.237914	0.232171	0.301961	
357000	-49531.324	7.720	0.227954	0.237914	0.232171	0.301961	
358000	-49502.553	7.700	0.220606	0.245671	0.237377	0.296347	
359000	-49483.551	7.677	0.220606	0.245671	0.237377	0.296347	
360000	-49487.042	7.679	0.220606	0.245671	0.237377	0.296347	
361000	-49490.781	7.679	0.220606	0.245671	0.237377	0.296347	
362000	-49482.003	7.717	0.220606	0.245671	0.237377	0.296347	
363000	-49479.995	7.704	0.234548	0.243923	0.236045	0.285484	
364000	-49475.155	7.761	0.230124	0.242800	0.237932	0.289144	
365000	-49462.156	7.756	0.233294	0.241436	0.229719	0.295551	
366000	-49473.642	7.770	0.233294	0.241436	0.229719	0.295551	
367000	-49477.924	7.728	0.225158	0.247836	0.238086	0.288920	
368000	-49468.418	7.728	0.224787	0.248042	0.231049	0.296122	
369000	-49447.087	7.716	0.224787	0.248042	0.231049	0.296122	
370000	-49428.234	7.737	0.224787	0.248042	0.231049	0.296122	
371000	-49405.592	7.715	0.225970	0.240357	0.232266	0.301407	
372000	-49383.665	7.729	0.225970	0.240357	0.232266	0.301407	
373000	-49377.762	7.771	0.225970	0.240357	0.232266	0.301407	
374000	-49420.828	7.802	0.227210	0.231621	0.242149	0.299020	
375000	-49420.785	7.790	0.224602	0.246876	0.237434	0.291088	
376000	-49406.883	7.723	0.226437	0.233448	0.241914	0.298201	
377000	-49395.306	7.684	0.220741	0.246041	0.227174	0.306044	
378000	-49397.030	7.708	0.214767	0.246949	0.241320	0.296965	
379000	-49388.183	7.687	0.218309	0.250635	0.237804	0.293252	
380000	-49383.225	7.709	0.226853	0.237353	0.235671	0.300123	
381000	-49376.057	7.687	0.226853	0.237353	0.235671	0.300123	
382000	-49371.607	7.703	0.229875	0.239877	0.231791	0.298457	
383000	-49337.007	7.712	0.222272	0.241997	0.234473	0.301259	
384000	-49332.122	7.743	0.224394	0.253307	0.225903	0.296396	
385000	-49332.848	7.765	0.222187	0.248072	0.241356	0.288386	
386000	-49308.697	7.726	0.227206	0.245151	0.237621	0.290022	
387000	-49318.824	7.700	0.227206	0.245151	0.237621	0.290022	
388000	-49305.074	7.734	0.227206	0.245151	0.237621	0.290022	
389000	-49310.414	7.725	0.227206	0.245151	0.237621	0.290022	
390000	-49288.591	7.722	0.227206	0.245151	0.237621	0.290022	
391000	-49276.196	7.704	0.220047	0.237880	0.236724	0.305349	
392000	-49284.429	7.729	0.223436	0.239160	0.241285	0.296118	
393000	-49293.076	7.716	0.223436	0.239160	0.241285	0.296118	
394000	-49320.298	7.738	0.223436	0.239160	0.241285	0.296118	
395000	-49314.660	7.773	0.222731	0.238544	0.247219	0.291505	
396000	-49307.942	7.814	0.221012	0.251644	0.232533	0.294811	
397000	-49270.719	7.844	0.221394	0.248109	0.230493	0.300004	
398000	-49264.511	7.830	0.221600	0.240930	0.236920	0.300550	
399000	-49266.960	7.837	0.228711	0.244717	0.230356	0.296216	
400000	-49254.491	7.806	0.224416	0.237749	0.243183	0.294652	
401000	-49228.904	7.813	0.221135	0.237137	0.236868	0.304860	
402000	-49199.795	7.815	0.221135	0.237137	0.236868	0.304860	
403000	-49222.766	7.793	0.221135	0.237137	0.236868	0.304860	
404000	-49229.292	7.799	0.218842	0.243886	0.240784	0.296488	
405000	-49206.658	7.816	0.218842	0.243886	0.240784	0.296488	
406000	-49225.746	7.836	0.219171	0.247039	0.232497	0.301293	
407000	-49220.049	7.833	0.222562	0.243441	0.242079	0.291918	
408000	-49209.579	7.847	0.223999	0.242590	0.235267	0.298145	
409000	-49216.484	7.875	0.223999	0.242590	0.235267	0.298145	
410000	-49162.682	7.807	0.223999	0.242590	0.235267	0.298145	
411000	-49159.189	7.784	0.223999	0.242590	0.235267	0.298145	
412000	-49137.805	7.716	0.223999	0.242590	0.235267	0.298145	
413000	-48841.829	7.686	0.227318	0.236760	0.228658	0.307263	
414000	-48805.746	7.667	0.227318	0.236760	0.228658	0.307263	
415000	-48800.213	7.667	0.222178	0.240279	0.234125	0.303418	
416000	-48815.489	7.630	0.219518	0.238301	0.239550	0.302631	
417000	-48790.132	7.589	0.225176	0.239861	0.242384	0.292579	
418000	-48811.728	7.616	0.225176	0.239861	0.242384	0.292579	
419000	-48795.613	7.615	0.225176	0.239861	0.242384	0.292579	
420000	-48795.648	7.617	0.220286	0.247338	0.234951	0.297425	
421000	-48792.670	7.652	0.220286	0.247338	0.234951	0.297425	
422000	-48795.772	7.660	0.225186	0.245202	0.231581	0.298030	
423000	-48779.573	7.636	0.225186	0.245202	0.231581	0.298030	
424000	-48774.904	7.617	0.225186	0.245202	0.231581	0.298030	
425000	-48764.579	7.664	0.231673	0.237551	0.239297	0.291479	
426000	-48754.226	7.628	0.231673	0.237551	0.239297	0.291479	
427000	-48738.254	7.641	0.231673	0.237551	0.239297	0.291479	
428000	-48757.043	7.632	0.231673	0.237551	0.239297	0.291479	
429000	-48763.976	7.609	0.225572	0.241506	0.236412	0.296510	
430000	-48771.364	7.649	0.222269	0.246287	0.238536	0.292908	
431000	-48777.384	7.628	0.222269	0.246287	0.238536	0.292908	
432000	-48745.326	7.677	0.222269	0.246287	0.238536	0.292908	
433000	-48769.545	7.630	0.222269	0.246287	0.238536	0.292908	
434000	-48786.986	7.702	0.221659	0.239494	0.235741	0.303106	
435000	-48800.126	7.735	0.221659	0.239494	0.235741	0.303106	
436000	-48796.417	7.726	0.221659	0.239494	0.235741	0.303106	
437000	-48799.299	7.715	0.226722	0.239829	0.240581	0.292868	
438000	-48805.074	7.715	0.226722	0.239829	0.240581	0.292868	
439000	-48765.856	7.662	0.226722	0.239829	0.240581	0.292868	
440000	-48769.695	7.722	0.219337	0.239637	0.246212	0.294814	
441000	-48768.106	7.686	0.219337	0.239637	0.246212	0.294814	
442000	-48768.743	7.707	0.220002	0.239385	0.243181	0.297432	
443000	-48740.424	7.698	0.220002	0.239385	0.243181	0.297432	
444000	-48746.309	7.650	0.220002	0.239385	0.243181	0.297432	
445000	-48759.174	7.658	0.232035	0.245153	0.227875	0.294936	
446000	-48761.349	7.660	0.220711	0.243259	0.232905	0.303125	
447000	-48742.358	7.631	0.231705	0.240776	0.239226	0.288293	
448000	-48747.294	7.598	0.228199	0.234637	0.243355	0.293809	
449000	-48733.274	7.656	0.223783	0.238026	0.240393	0.297798	
450000	-48715.566	7.610	0.231029	0.237846	0.233710	0.297416	
451000	-48707.888	7.592	0.226524	0.234787	0.234038	0.304651	
452000	-48698.324	7.581	0.224608	0.243907	0.234197	0.297288	
453000	-48688.356	7.552	0.224608	0.243907	0.234197	0.297288	
454000	-48703.579	7.587	0.224608	0.243907	0.234197	0.297288	
455000	-48707.662	7.621	0.230754	0.230663	0.240016	0.298567	
456000	-48739.172	7.641	0.239971	0.241207	0.231425	0.287397	
457000	-48734.767	7.665	0.231586	0.246035	0.241760	0.280619	
458000	-48708.072	7.683	0.231759	0.239958	0.232873	0.295410	
459000	-48700.462	7.705	0.231759	0.239958	0.232873	0.295410	
460000	-48705.642	7.740	0.231759	0.239958	0.232873	0.295410	
461000	-48694.236	7.714	0.231759	0.239958	0.232873	0.295410	
462000	-48702.705	7.677	0.231759	0.239958	0.232873	0.295410	
463000	-48699.108	7.694	0.231759	0.239958	0.232873	0.295410	
464000	-48695.856	7.680	0.231759	0.239958	0.232873	0.295410	
465000	-48686.293	7.672	0.231759	0.239958	0.232873	0.295410	
466000	-48679.791	7.679	0.231759	0.239958	0.232873	0.295410	
467000	-48659.878	7.655	0.231759	0.239958	0.232873	0.295410	
468000	-48670.659	7.649	0.231759	0.239958	0.232873	0.295410	
469000	-48664.363	7.649	0.228486	0.232725	0.239263	0.299525	
470000	-48682.664	7.691	0.228486	0.232725	0.239263	0.299525	
471000	-48678.105	7.698	0.220918	0.241612	0.241316	0.296153	
472000	-48684.943	7.699	0.222400	0.237674	0.246234	0.293693	
473000	-48657.248	7.637	0.235325	0.242982	0.232984	0.288710	
474000	-48646.822	7.625	0.226950	0.236776	0.239907	0.296366	
475000	-48662.398	7.641	0.226950	0.236776	0.239907	0.296366	
476000	-48658.384	7.652	0.226950	0.236776	0.239907	0.296366	
477000	-48653.480	7.634	0.221443	0.241519	0.238338	0.298700	
478000	-48632.542	7.616	0.221443	0.241519	0.238338	0.298700	
479000	-48635.111	7.589	0.232997	0.240414	0.233927	0.292662	
480000	-48572.038	7.583	0.232997	0.240414	0.233927	0.292662	
481000	-48581.320	7.674	0.220646	0.248455	0.233892	0.297007	
482000	-48597.792	7.682	0.227013	0.241445	0.240733	0.290809	
483000	-48600.502	7.671	0.227013	0.241445	0.240733	0.290809	
484000	-48594.575	7.652	0.223117	0.239432	0.246072	0.291379	
485000	-48581.693	7.628	0.227587	0.239301	0.241823	0.291290	
486000	-48586.211	7.667	0.227587	0.239301	0.241823	0.291290	
487000	-48581.843	7.645	0.227587	0.239301	0.241823	0.291290	
488000	-48573.538	7.600	0.227587	0.239301	0.241823	0.291290	
489000	-48593.432	7.626	0.227587	0.239301	0.241823	0.291290	
490000	-48583.430	7.620	0.230160	0.242818	0.236352	0.290670	
491000	-48590.176	7.609	0.230160	0.242818	0.236352	0.290670	
492000	-48575.842	7.586	0.233131	0.241401	0.239621	0.285847	
493000	-48576.851	7.555	0.231592	0.241349	0.229810	0.297248	
494000	-48571.958	7.578	0.231592	0.241349	0.229810	0.297248	
495000	-48560.725	7.526	0.231592	0.241349	0.229810	0.297248	
496000	-48575.135	7.538	0.231592	0.241349	0.229810	0.297248	
497000	-48581.335	7.559	0.231592	0.241349	0.229810	0.297248	
498000	-48587.837	7.584	0.231592	0.241349	0.229810	0.297248	
499000	-48573.204	7.575	0.231592	0.241349	0.229810	0.297248	
500000	-48555.233	7.563	0.225045	0.233213	0.244893	0.296849	
501000	-48557.268	7.539	0.225045	0.233213	0.244893	0.296849	
502000	-48562.427	7.516	0.235041	0.240492	0.231668	0.292800	
503000	-48567.448	7.519	0.225600	0.247415	0.233186	0.293799	
504000	-48588.697	7.521	0.225600	0.247415	0.233186	0.293799	
505000	-48586.038	7.510	0.232290	0.240108	0.242858	0.284743	
506000	-48566.558	7.488	0.232290	0.240108	0.242858	0.284743	
507000	-48562.189	7.508	0.231781	0.240967	0.238783	0.288469	
508000	-48595.000	7.559	0.231781	0.240967	0.238783	0.288469	
509000	-48593.677	7.545	0.231781	0.240967	0.238783	0.288469	
510000	-48600.980	7.534	0.231781	0.240967	0.238783	0.288469	
511000	-48606.112	7.558	0.220437	0.239611	0.246145	0.293807	
512000	-48589.826	7.572	0.220437	0.239611	0.246145	0.293807	
513000	-48557.464	7.568	0.226292	0.234066	0.246403	0.293240	
514000	-48562.839	7.529	0.221123	0.244755	0.241049	0.293073	
515000	-48553.549	7.509	0.221123	0.244755	0.241049	0.293073	
516000	-48585.781	7.547	0.224961	0.248930	0.239194	0.286915	
517000	-48575.444	7.534	0.224961	0.248930	0.239194	0.286915	
518000	-48586.141	7.559	0.220823	0.246444	0.241533	0.291200	
519000	-48575.162	7.577	0.222850	0.238824	0.237715	0.300611	
520000	-48571.888	7.606	0.222850	0.238824	0.237715	0.300611	
521000	-48578.607	7.695	0.222850	0.238824	0.237715	0.300611	
522000	-48558.783	7.684	0.222850	0.238824	0.237715	0.300611	
523000	-48561.819	7.646	0.222850	0.238824	0.237715	0.300611	
524000	-48544.772	7.607	0.222850	0.238824	0.237715	0.300611	
525000	-48541.047	7.604	0.228753	0.234893	0.237419	0.298936	
526000	-48569.234	7.611	0.234473	0.243878	0.234557	0.287091	
527000	-48565.998	7.483	0.218545	0.245595	0.243915	0.291945	
528000	-48553.672	7.485	0.218545	0.245595	0.243915	0.291945	
529000	-48552.276	7.487	0.215257	0.238484	0.239845	0.306414	
530000	-48556.236	7.519	0.225666	0.234582	0.239015	0.300737	
531000	-48565.145	7.520	0.225666	0.234582	0.239015	0.300737	
532000	-48561.662	7.556	0.225666	0.234582	0.239015	0.300737	
533000	-48546.346	7.543	0.231529	0.234831	0.243959	0.289681	
534000	-48554.666	7.584	0.226368	0.230255	0.237459	0.305917	
535000	-48549.399	7.585	0.230501	0.234927	0.235764	0.298809	
536000	-48558.316	7.591	0.227758	0.239347	0.230917	0.301978	
537000	-48551.057	7.591	0.227758	0.239347	0.230917	0.301978	
538000	-48535.734	7.550	0.227758	0.239347	0.230917	0.301978	
539000	-48534.927	7.548	0.227758	0.239347	0.230917	0.301978	
540000	-48545.643	7.552	0.230354	0.244923	0.232615	0.292108	
541000	-48552.510	7.612	0.230354	0.244923	0.232615	0.292108	
542000	-48562.490	7.634	0.232046	0.238405	0.233892	0.295658	
543000	-48569.895	7.656	0.224919	0.234719	0.241566	0.298795	
544000	-48560.276	7.637	0.220675	0.244445	0.237785	0.297095	
545000	-48572.899	7.611	0.235727	0.242421	0.232455	0.289397	
546000	-48588.127	7.596	0.228573	0.244309	0.230318	0.296800	
547000	-48587.276	7.616	0.228573	0.244309	0.230318	0.296800	
548000	-48589.883	7.584	0.228573	0.244309	0.230318	0.296800	
549000	-48602.885	7.630	0.230862	0.237011	0.236242	0.295885	
550000	-48594.922	7.648	0.230862	0.237011	0.236242	0.295885	
551000	-48594.545	7.626	0.230862	0.237011	0.236242	0.295885	
552000	-48582.596	7.600	0.230862	0.237011	0.236242	0.295885	
553000	-48565.455	7.527	0.222699	0.235018	0.239251	0.303032	
554000	-48544.770	7.473	0.228775	0.245867	0.239233	0.286125	
555000	-48564.738	7.520	0.228775	0.245867	0.239233	0.286125	
556000	-48573.307	7.540	0.228775	0.245867	0.239233	0.286125	
557000	-48576.011	7.603	0.223549	0.240816	0.234414	0.301221	
558000	-48556.122	7.633	0.223549	0.240816	0.234414	0.301221	
559000	-48565.240	7.628	0.227679	0.243194	0.240247	0.288880	
560000	-48567.859	7.580	0.227679	0.243194	0.240247	0.288880	
561000	-48564.138	7.613	0.227679	0.243194	0.240247	0.288880	
562000	-48573.228	7.658	0.227679	0.243194	0.240247	0.288880	
563000	-48573.040	7.660	0.227679	0.243194	0.240247	0.288880	
564000	-48574.988	7.682	0.227679	0.243194	0.240247	0.288880	
565000	-48592.690	7.739	0.225956	0.245066	0.236686	0.292292	
566000	-48589.872	7.733	0.225956	0.245066	0.236686	0.292292	
567000	-48603.210	7.716	0.225956	0.245066	0.236686	0.292292	
568000	-48596.853	7.713	0.225956	0.245066	0.236686	0.292292	
569000	-48597.827	7.739	0.225956	0.245066	0.236686	0.292292	
570000	-48613.302	7.737	0.221085	0.233760	0.239841	0.305314	
571000	-48600.716	7.753	0.217160	0.244163	0.235617	0.303060	
572000	-48593.587	7.810	0.225570	0.242844	0.231788	0.299799	
573000	-48603.543	7.790	0.225603	0.242571	0.233697	0.298129	
574000	-48601.552	7.693	0.225603	0.242571	0.233697	0.298129	
575000	-48601.667	7.682	0.225603	0.242571	0.233697	0.298129	
576000	-48602.984	7.662	0.225603	0.242571	0.233697	0.298129	
577000	-48597.674	7.699	0.231555	0.241551	0.236795	0.290099	
578000	-48583.894	7.669	0.231555	0.241551	0.236795	0.290099	
579000	-48568.096	7.668	0.231555	0.241551	0.236795	0.290099	
580000	-48585.670	7.699	0.214821	0.243436	0.237975	0.303768	
581000	-48603.336	7.659	0.228423	0.240210	0.238550	0.292817	
582000	-48605.565	7.714	0.228423	0.240210	0.238550	0.292817	
583000	-48593.918	7.742	0.228423	0.240210	0.238550	0.292817	
584000	-48593.539	7.756	0.228423	0.240210	0.238550	0.292817	
585000	-48586.044	7.701	0.228423	0.240210	0.238550	0.292817	
586000	-48606.101	7.681	0.227251	0.241924	0.245655	0.285171	
587000	-48613.027	7.638	0.227251	0.241924	0.245655	0.285171	
588000	-48634.292	7.638	0.231017	0.236739	0.236461	0.295783	
589000	-48641.439	7.646	0.231017	0.236739	0.236461	0.295783	
590000	-48633.726	7.576	0.231017	0.236739	0.236461	0.295783	
591000	-48602.886	7.555	0.231276	0.243230	0.235175	0.290319	
592000	-48583.933	7.518	0.231276	0.243230	0.235175	0.290319	
593000	-48579.345	7.470	0.231276	0.243230	0.235175	0.290319	
594000	-48613.115	7.490	0.231276	0.243230	0.235175	0.290319	
595000	-48602.205	7.527	0.231276	0.243230	0.235175	0.290319	
596000	-48591.646	7.529	0.231276	0.243230	0.235175	0.290319	
597000	-48579.434	7.530	0.231276	0.243230	0.235175	0.290319	
598000	-48573.199	7.499	0.234343	0.244746	0.235776	0.285135	
599000	-48568.284	7.530	0.234343	0.244746	0.235776	0.285135	
600000	-48564.313	7.544	0.220220	0.248753	0.234645	0.296382	
601000	-48551.659	7.507	0.234293	0.240122	0.240641	0.284943	
602000	-48547.069	7.538	0.233184	0.243296	0.237551	0.285969	
603000	-48529.301	7.521	0.233184	0.243296	0.237551	0.285969	
604000	-48551.335	7.541	0.228763	0.248664	0.235566	0.287007	
605000	-48532.160	7.518	0.230154	0.242671	0.237310	0.289865	
606000	-48553.330	7.609	0.230154	0.242671	0.237310	0.289865	
607000	-48564.380	7.553	0.230154	0.242671	0.237310	0.289865	
608000	-48562.502	7.564	0.222699	0.241120	0.234781	0.301400	
609000	-48572.385	7.563	0.228202	0.249058	0.239231	0.283510	
610000	-48576.432	7.545	0.232634	0.244786	0.227599	0.294981	
611000	-48596.791	7.568	0.219725	0.249167	0.237511	0.293597	
612000	-48608.306	7.608	0.227755	0.246542	0.225095	0.300608	
613000	-48603.524	7.668	0.223167	0.248277	0.232815	0.295741	
614000	-48598.532	7.617	0.223167	0.248277	0.232815	0.295741	
615000	-48588.123	7.591	0.222380	0.238794	0.236348	0.302479	
616000	-48585.699	7.630	0.222380	0.238794	0.236348	0.302479	
617000	-48595.085	7.649	0.222380	0.238794	0.236348	0.302479	
618000	-48583.508	7.665	0.224945	0.238014	0.239859	0.297181	
619000	-48594.203	7.620	0.227472	0.238579	0.247948	0.286001	
620000	-48570.693	7.607	0.231627	0.243107	0.242718	0.282547	
621000	-48592.057	7.568	0.220370	0.247220	0.239423	0.292987	
622000	-48571.118	7.654	0.229039	0.241761	0.239893	0.289307	
623000	-48569.958	7.659	0.223125	0.240072	0.242916	0.293887	
624000	-48575.276	7.674	0.223125	0.240072	0.242916	0.293887	
625000	-48570.197	7.672	0.223125	0.240072	0.242916	0.293887	
626000	-48551.194	7.707	0.232997	0.240191	0.232867	0.293945	
627000	-48588.093	7.706	0.232997	0.240191	0.232867	0.293945	
628000	-48600.579	7.709	0.232997	0.240191	0.232867	0.293945	
629000	-48588.503	7.654	0.232997	0.240191	0.232867	0.293945	
630000	-48593.358	7.730	0.232997	0.240191	0.232867	0.293945	
631000	-48587.666	7.767	0.223935	0.244101	0.234202	0.297763	
632000	-48550.110	7.747	0.223935	0.244101	0.234202	0.297763	
633000	-48563.876	7.764	0.223935	0.244101	0.234202	0.297763	
634000	-48538.354	7.740	0.223935	0.244101	0.234202	0.297763	
635000	-48550.753	7.727	0.223935	0.244101	0.234202	0.297763	
636000	-48566.999	7.737	0.223935	0.244101	0.234202	0.297763	
637000	-48577.613	7.713	0.223935	0.244101	0.234202	0.297763	
638000	-48498.068	7.699	0.223935	0.244101	0.234202	0.297763	
639000	-48314.414	7.644	0.223935	0.244101	0.234202	0.297763	
640000	-48284.682	7.580	0.228847	0.237721	0.233794	0.299638	
641000	-48321.530	7.595	0.229466	0.245352	0.234512	0.290670	
642000	-48315.047	7.697	0.229466	0.245352	0.234512	0.290670	
643000	-48310.135	7.722	0.229466	0.245352	0.234512	0.290670	
644000	-48308.669	7.736	0.221475	0.242122	0.244452	0.291951	
645000	-48293.103	7.705	0.224642	0.235232	0.240228	0.299897	
646000	-48278.178	7.672	0.232191	0.244355	0.234042	0.289413	
647000	-48264.746	7.633	0.232191	0.244355	0.234042	0.289413	
648000	-48278.761	7.647	0.227865	0.236374	0.236261	0.299500	
649000	-48270.479	7.611	0.227865	0.236374	0.236261	0.299500	
650000	-48255.211	7.650	0.231466	0.239304	0.234752	0.294477	
651000	-48231.169	7.636	0.231466	0.239304	0.234752	0.294477	
652000	-48233.386	7.604	0.231466	0.239304	0.234752	0.294477	
653000	-48226.281	7.579	0.231466	0.239304	0.234752	0.294477	
654000	-48231.419	7.569	0.222055	0.249181	0.232968	0.295796	
655000	-48219.783	7.577	0.227970	0.242222	0.234465	0.295343	
656000	-48223.862	7.581	0.227970	0.242222	0.234465	0.295343	
657000	-48223.378	7.608	0.233041	0.245054	0.237599	0.284305	
658000	-48212.350	7.600	0.235266	0.238310	0.233427	0.292997	
659000	-48235.656	7.644	0.235266	0.238310	0.233427	0.292997	
660000	-48208.379	7.647	0.229501	0.240545	0.243675	0.286280	
661000	-48222.719	7.650	0.229501	0.240545	0.243675	0.286280	
662000	-48196.358	7.628	0.230283	0.242004	0.230466	0.297247	
663000	-48193.581	7.584	0.230283	0.242004	0.230466	0.297247	
664000	-48217.184	7.603	0.230283	0.242004	0.230466	0.297247	
665000	-48206.170	7.605	0.236528	0.239556	0.232545	0.291371	
666000	-48218.181	7.576	0.236528	0.239556	0.232545	0.291371	
667000	-48175.283	7.545	0.229510	0.241561	0.244841	0.284088	
668000	-48200.101	7.564	0.228384	0.244759	0.230728	0.296130	
669000	-48207.265	7.581	0.228384	0.244759	0.230728	0.296130	
670000	-48203.561	7.550	0.228384	0.244759	0.230728	0.296130	
671000	-48210.123	7.520	0.228384	0.244759	0.230728	0.296130	
672000	-48203.864	7.489	0.228384	0.244759	0.230728	0.296130	
673000	-48195.022	7.502	0.228384	0.244759	0.230728	0.296130	
674000	-48173.513	7.468	0.222409	0.249368	0.241112	0.287111	
675000	-48171.849	7.476	0.230697	0.242698	0.246056	0.280549	
676000	-48169.374	7.495	0.229186	0.232740	0.236795	0.301279	
677000	-48188.152	7.530	0.233851	0.237972	0.234803	0.293374	
678000	-48191.825	7.500	0.231604	0.243362	0.236165	0.288869	
679000	-48180.183	7.483	0.231604	0.243362	0.236165	0.288869	
680000	-48168.818	7.480	0.231604	0.243362	0.236165	0.288869	
681000	-48151.729	7.500	0.231604	0.243362	0.236165	0.288869	
682000	-48153.373	7.494	0.231604	0.243362	0.236165	0.288869	
683000	-48164.163	7.528	0.231604	0.243362	0.236165	0.288869	
684000	-48146.816	7.537	0.231604	0.243362	0.236165	0.288869	
685000	-48145.496	7.526	0.231604	0.243362	0.236165	0.288869	
686000	-48133.274	7.489	0.231604	0.243362	0.236165	0.288869	
687000	-48134.508	7.548	0.223478	0.243403	0.239025	0.294093	
688000	-48133.807	7.532	0.227323	0.238325	0.242068	0.292285	
689000	-48136.576	7.513	0.221381	0.244767	0.236187	0.297665	
690000	-48138.097	7.439	0.231437	0.237201	0.243311	0.288051	
691000	-48146.836	7.440	0.219224	0.239322	0.240439	0.301015	
692000	-48154.764	7.407	0.223872	0.246472	0.245945	0.283710	
693000	-48133.524	7.393	0.223872	0.246472	0.245945	0.283710	
694000	-48112.773	7.353	0.223872	0.246472	0.245945	0.283710	
695000	-48105.382	7.341	0.233770	0.240734	0.233239	0.292258	
696000	-48092.038	7.357	0.233770	0.240734	0.233239	0.292258	
697000	-48096.600	7.425	0.222827	0.243354	0.243666	0.290153	
698000	-48094.982	7.422	0.222827	0.243354	0.243666	0.290153	
699000	-48071.641	7.421	0.222827	0.243354	0.243666	0.290153	
700000	-48075.430	7.443	0.233701	0.246010	0.236842	0.283447	
701000	-48072.899	7.375	0.231771	0.240307	0.233605	0.294318	
702000	-48087.879	7.418	0.217852	0.240038	0.246679	0.295431	
703000	-48083.949	7.428	0.219579	0.248524	0.236620	0.295277	
704000	-48085.614	7.492	0.219579	0.248524	0.236620	0.295277	
705000	-48085.892	7.510	0.227901	0.242759	0.232298	0.297042	
706000	-48078.961	7.485	0.227901	0.242759	0.232298	0.297042	
707000	-48078.992	7.512	0.220506	0.235462	0.243074	0.300958	
708000	-48086.910	7.473	0.233974	0.236168	0.230669	0.299189	
709000	-48086.856	7.466	0.222451	0.238204	0.251801	0.287543	
710000	-48083.573	7.475	0.222451	0.238204	0.251801	0.287543	
711000	-48092.935	7.480	0.222451	0.238204	0.251801	0.287543	
712000	-48085.247	7.516	0.235039	0.238455	0.237741	0.288765	
713000	-48074.567	7.536	0.219882	0.241955	0.245639	0.292525	
714000	-48066.040	7.520	0.228858	0.241345	0.230845	0.298952	
715000	-48068.686	7.475	0.222379	0.240448	0.233527	0.303647	
716000	-48065.250	7.439	0.222379	0.240448	0.233527	0.303647	
717000	-48068.841	7.440	0.222379	0.240448	0.233527	0.303647	
718000	-47917.085	7.690	0.222478	0.242021	0.245007	0.290494	
719000	-47872.684	7.687	0.222478	0.242021	0.245007	0.290494	
720000	-47638.930	7.676	0.222478	0.242021	0.245007	0.290494	
721000	-47589.195	7.722	0.224153	0.239592	0.234372	0.301884	
722000	-47532.750	7.657	0.229638	0.239761	0.232352	0.298249	
723000	-47465.659	7.637	0.230736	0.241669	0.234816	0.292779	
724000	-47395.254	7.552	0.230089	0.243051	0.237163	0.289696	
725000	-47363.598	7.527	0.230089	0.243051	0.237163	0.289696	
726000	-47345.371	7.478	0.230089	0.243051	0.237163	0.289696	
727000	-47360.754	7.466	0.230089	0.243051	0.237163	0.289696	
728000	-47317.831	7.413	0.222828	0.247997	0.236339	0.292837	
729000	-47281.222	7.388	0.227497	0.246503	0.232818	0.293182	
730000	-47270.077	7.372	0.228525	0.249338	0.242308	0.279829	
731000	-47268.092	7.323	0.236541	0.235439	0.239243	0.288777	
732000	-47276.724	7.319	0.226937	0.243270	0.239383	0.290410	
733000	-47294.765	7.299	0.226937	0.243270	0.239383	0.290410	
734000	-47271.140	7.277	0.226937	0.243270	0.239383	0.290410	
735000	-47270.333	7.342	0.236423	0.231764	0.234644	0.297169	
736000	-47254.544	7.426	0.240568	0.237543	0.230311	0.291578	
737000	-47245.550	7.475	0.240568	0.237543	0.230311	0.291578	
738000	-47261.045	7.429	0.217059	0.252508	0.242034	0.288399	
739000	-47260.127	7.460	0.238020	0.239374	0.231179	0.291428	
740000	-47261.038	7.456	0.234382	0.247821	0.229895	0.287902	
741000	-47253.813	7.483	0.221106	0.239004	0.241660	0.298229	
742000	-47258.065	7.510	0.221106	0.239004	0.241660	0.298229	
743000	-47238.511	7.488	0.221106	0.239004	0.241660	0.298229	
744000	-47224.915	7.492	0.229891	0.241825	0.237634	0.290651	
745000	-47233.784	7.495	0.229891	0.241825	0.237634	0.290651	
746000	-47230.041	7.478	0.229891	0.241825	0.237634	0.290651	
747000	-47253.701	7.482	0.229891	0.241825	0.237634	0.290651	
748000	-47229.069	7.451	0.230170	0.250300	0.238431	0.281099	
749000	-47227.550	7.410	0.219395	0.243898	0.240829	0.295878	
750000	-47226.325	7.330	0.219395	0.243898	0.240829	0.295878	
751000	-47225.472	7.304	0.220192	0.240608	0.241656	0.297544	
752000	-47216.692	7.324	0.220192	0.240608	0.241656	0.297544	
753000	-47205.944	7.325	0.218032	0.238328	0.250523	0.293117	
754000	-47198.166	7.275	0.218032	0.238328	0.250523	0.293117	
755000	-47194.219	7.229	0.226636	0.244291	0.235551	0.293522	
756000	-47190.907	7.253	0.226636	0.244291	0.235551	0.293522	
757000	-47194.484	7.286	0.226636	0.244291	0.235551	0.293522	
758000	-47189.130	7.364	0.226636	0.244291	0.235551	0.293522	
759000	-47202.177	7.358	0.226636	0.244291	0.235551	0.293522	
760000	-47206.929	7.348	0.226636	0.244291	0.235551	0.293522	
761000	-47206.347	7.399	0.226106	0.245744	0.238873	0.289277	
762000	-47215.350	7.365	0.226106	0.245744	0.238873	0.289277	
763000	-47208.308	7.281	0.226106	0.245744	0.238873	0.289277	
764000	-47206.490	7.275	0.226931	0.242926	0.243518	0.286625	
765000	-47193.112	7.256	0.225249	0.246303	0.239609	0.288838	
766000	-47190.506	7.280	0.225249	0.246303	0.239609	0.288838	
767000	-47176.964	7.257	0.225249	0.246303	0.239609	0.288838	
768000	-47177.854	7.237	0.225249	0.246303	0.239609	0.288838	
769000	-47171.684	7.292	0.225249	0.246303	0.239609	0.288838	
770000	-47178.664	7.315	0.225249	0.246303	0.239609	0.288838	
771000	-47167.060	7.313	0.225249	0.246303	0.239609	0.288838	
772000	-47179.478	7.317	0.225249	0.246303	0.239609	0.288838	
773000	-47189.146	7.330	0.225249	0.246303	0.239609	0.288838	
774000	-47180.319	7.305	0.225249	0.246303	0.239609	0.288838	
775000	-47155.393	7.254	0.225249	0.246303	0.239609	0.288838	
776000	-47154.632	7.295	0.225221	0.247625	0.241208	0.285946	
777000	-47135.619	7.231	0.224864	0.251617	0.235373	0.288147	
778000	-47103.692	7.168	0.233011	0.250757	0.237103	0.279128	
779000	-47111.610	7.184	0.224910	0.254546	0.244590	0.275954	
780000	-47123.866	7.234	0.235117	0.238044	0.240231	0.286608	
781000	-47106.527	7.212	0.235117	0.238044	0.240231	0.286608	
782000	-47102.543	7.231	0.218763	0.250155	0.245426	0.285655	
783000	-47110.293	7.238	0.224880	0.242437	0.250162	0.282522	
784000	-47087.786	7.156	0.233239	0.240753	0.241150	0.284857	
785000	-47096.284	7.184	0.231315	0.239767	0.243190	0.285728	
786000	-47112.929	7.251	0.221016	0.250971	0.243976	0.284037	
787000	-47101.737	7.228	0.221016	0.250971	0.243976	0.284037	
788000	-47093.734	7.230	0.221016	0.250971	0.243976	0.284037	
789000	-47121.648	7.249	0.221016	0.250971	0.243976	0.284037	
790000	-47097.556	7.213	0.230300	0.247193	0.243682	0.278825	
791000	-47101.594	7.276	0.233206	0.239185	0.238628	0.288981	
792000	-47107.098	7.353	0.219561	0.254138	0.241818	0.284483	
793000	-47123.738	7.351	0.222737	0.243417	0.248975	0.284872	
794000	-47104.014	7.338	0.222737	0.243417	0.248975	0.284872	
795000	-47119.051	7.396	0.222920	0.247288	0.240893	0.288899	
796000	-47131.871	7.339	0.221754	0.243948	0.240555	0.293743	
797000	-47145.324	7.375	0.227526	0.249496	0.245382	0.277596	
798000	-47152.250	7.443	0.221385	0.253066	0.248136	0.277413	
799000	-47154.697	7.390	0.233193	0.238247	0.244320	0.284241	
800000	-47140.623	7.373	0.233193	0.238247	0.244320	0.284241	
801000	-47160.735	7.351	0.226861	0.254416	0.231663	0.287059	
802000	-47164.600	7.269	0.221966	0.236586	0.247495	0.293953	
803000	-47142.764	7.250	0.225333	0.243678	0.251615	0.279374	
804000	-47150.668	7.263	0.227985	0.247245	0.236871	0.287899	
805000	-47152.828	7.304	0.227985	0.247245	0.236871	0.287899	
806000	-47132.135	7.301	0.227985	0.247245	0.236871	0.287899	
807000	-47119.017	7.343	0.227985	0.247245	0.236871	0.287899	
808000	-47137.626	7.403	0.227985	0.247245	0.236871	0.287899	
809000	-47114.768	7.350	0.231605	0.241036	0.243694	0.283665	
810000	-47107.784	7.325	0.231605	0.241036	0.243694	0.283665	
811000	-47093.727	7.249	0.231605	0.241036	0.243694	0.283665	
812000	-47118.260	7.271	0.222416	0.247387	0.246171	0.284026	
813000	-47137.687	7.348	0.222416	0.247387	0.246171	0.284026	
814000	-47133.397	7.319	0.225069	0.249631	0.236882	0.288418	
815000	-47121.901	7.332	0.225069	0.249631	0.236882	0.288418	
816000	-47151.667	7.373	0.225069	0.249631	0.236882	0.288418	
817000	-47127.127	7.352	0.223800	0.243377	0.240669	0.292155	
818000	-47120.026	7.386	0.223800	0.243377	0.240669	0.292155	
819000	-47108.171	7.385	0.223800	0.243377	0.240669	0.292155	
820000	-47119.961	7.351	0.223800	0.243377	0.240669	0.292155	
821000	-47113.450	7.336	0.223800	0.243377	0.240669	0.292155	
822000	-47125.935	7.341	0.223800	0.243377	0.240669	0.292155	
823000	-47109.369	7.316	0.223800	0.243377	0.240669	0.292155	
824000	-47102.502	7.318	0.223800	0.243377	0.240669	0.292155	
825000	-47110.518	7.327	0.235050	0.244680	0.241463	0.278806	
826000	-47112.391	7.361	0.218422	0.241552	0.247950	0.292077	
827000	-47103.285	7.381	0.218422	0.241552	0.247950	0.292077	
828000	-47108.721	7.340	0.218422	0.241552	0.247950	0.292077	
829000	-47118.545	7.365	0.224485	0.245485	0.242166	0.287864	
830000	-47113.188	7.328	0.218485	0.248654	0.243270	0.289591	
831000	-47123.587	7.391	0.224920	0.245905	0.239124	0.290051	
832000	-47146.047	7.378	0.211559	0.249260	0.237132	0.302049	
833000	-47150.848	7.418	0.225311	0.254477	0.239695	0.280518	
834000	-47124.577	7.405	0.225311	0.254477	0.239695	0.280518	
835000	-47139.343	7.426	0.222880	0.238703	0.241649	0.296768	
836000	-47119.706	7.451	0.235069	0.240076	0.239600	0.285255	
837000	-47135.307	7.473	0.236024	0.247706	0.238464	0.277806	
838000	-47144.719	7.452	0.224617	0.251937	0.243521	0.279926	
839000	-47148.837	7.453	0.224617	0.251937	0.243521	0.279926	
840000	-47137.520	7.429	0.229201	0.249548	0.242959	0.278291	
841000	-47104.842	7.390	0.229683	0.240765	0.240444	0.289108	
842000	-47126.238	7.442	0.229683	0.240765	0.240444	0.289108	
843000	-47138.472	7.500	0.229683	0.240765	0.240444	0.289108	
844000	-47136.457	7.498	0.229683	0.240765	0.240444	0.289108	
845000	-47132.062	7.461	0.233507	0.241072	0.241891	0.283531	
846000	-47138.493	7.451	0.225027	0.241079	0.243302	0.290592	
847000	-47156.370	7.465	0.224624	0.249417	0.247536	0.278423	
848000	-47150.633	7.458	0.226771	0.241535	0.248930	0.282763	
849000	-47142.478	7.462	0.226771	0.241535	0.248930	0.282763	
850000	-47144.302	7.382	0.235450	0.241094	0.235054	0.288403	
851000	-47124.936	7.355	0.235450	0.241094	0.235054	0.288403	
852000	-47120.611	7.375	0.235450	0.241094	0.235054	0.288403	
853000	-47123.281	7.394	0.235243	0.248504	0.237656	0.278597	
854000	-47119.034	7.354	0.228111	0.250066	0.244228	0.277595	
855000	-47114.507	7.329	0.228111	0.250066	0.244228	0.277595	
856000	-47118.462	7.326	0.226768	0.245281	0.245538	0.282412	
857000	-47102.997	7.300	0.226768	0.245281	0.245538	0.282412	
858000	-47098.404	7.296	0.226768	0.245281	0.245538	0.282412	
859000	-47112.216	7.293	0.226768	0.245281	0.245538	0.282412	
860000	-47126.365	7.298	0.226768	0.245281	0.245538	0.282412	
861000	-47138.098	7.298	0.226768	0.245281	0.245538	0.282412	
862000	-47154.653	7.347	0.226768	0.245281	0.245538	0.282412	
863000	-47152.250	7.337	0.230049	0.251818	0.237708	0.280426	
864000	-47132.713	7.339	0.230049	0.251818	0.237708	0.280426	
865000	-47133.617	7.337	0.230994	0.248880	0.244580	0.275546	
866000	-47134.764	7.339	0.233563	0.246212	0.243292	0.276933	
867000	-47135.743	7.322	0.233439	0.254771	0.237943	0.273846	
868000	-47143.620	7.348	0.228837	0.239852	0.241755	0.289556	
869000	-47138.616	7.365	0.228837	0.239852	0.241755	0.289556	
870000	-47116.981	7.307	0.228837	0.239852	0.241755	0.289556	
871000	-47118.026	7.307	0.226865	0.243512	0.244980	0.284643	
872000	-47133.650	7.358	0.226865	0.243512	0.244980	0.284643	
873000	-47157.228	7.304	0.226865	0.243512	0.244980	0.284643	
874000	-47149.857	7.322	0.226865	0.243512	0.244980	0.284643	
875000	-47146.139	7.294	0.226865	0.243512	0.244980	0.284643	
876000	-47150.661	7.323	0.226865	0.243512	0.244980	0.284643	
877000	-47143.243	7.290	0.227116	0.250755	0.240472	0.281656	
878000	-47146.366	7.295	0.230203	0.250898	0.239992	0.278907	
879000	-47139.890	7.322	0.227393	0.241597	0.242078	0.288932	
880000	-47139.282	7.302	0.227393	0.241597	0.242078	0.288932	
881000	-47109.988	7.276	0.227393	0.241597	0.242078	0.288932	
882000	-47096.216	7.241	0.227393	0.241597	0.242078	0.288932	
883000	-47098.238	7.290	0.227393	0.241597	0.242078	0.288932	
884000	-47096.980	7.299	0.227393	0.241597	0.242078	0.288932	
885000	-47097.623	7.339	0.227393	0.241597	0.242078	0.288932	
886000	-47116.945	7.339	0.227393	0.241597	0.242078	0.288932	
887000	-47105.197	7.288	0.227393	0.241597	0.242078	0.288932	
888000	-47120.722	7.300	0.227393	0.241597	0.242078	0.288932	
889000	-47117.023	7.328	0.227393	0.241597	0.242078	0.288932	
890000	-47120.623	7.331	0.227393	0.241597	0.242078	0.288932	
891000	-47129.040	7.344	0.221090	0.242991	0.246200	0.289719	
892000	-47117.997	7.392	0.221090	0.242991	0.246200	0.289719	
893000	-47149.549	7.373	0.221090	0.242991	0.246200	0.289719	
894000	-47120.661	7.381	0.222235	0.243588	0.238575	0.295602	
895000	-47113.559	7.361	0.228576	0.244291	0.245292	0.281841	
896000	-47124.105	7.352	0.233263	0.239340	0.239240	0.288157	
897000	-47125.891	7.301	0.233263	0.239340	0.239240	0.288157	
898000	-47128.357	7.329	0.222749	0.245719	0.240644	0.290888	
899000	-47120.906	7.382	0.222749	0.245719	0.240644	0.290888	
900000	-47130.676	7.389	0.222749	0.245719	0.240644	0.290888	
901000	-47131.953	7.378	0.227612	0.242497	0.241213	0.288677	
902000	-47128.585	7.382	0.227612	0.242497	0.241213	0.288677	
903000	-47120.623	7.329	0.227612	0.242497	0.241213	0.288677	
904000	-47116.396	7.269	0.227612	0.242497	0.241213	0.288677	
905000	-47123.389	7.279	0.227612	0.242497	0.241213	0.288677	
906000	-47131.475	7.294	0.229887	0.246999	0.238304	0.284810	
907000	-47136.198	7.296	0.223360	0.248628	0.240611	0.287401	
908000	-47136.949	7.366	0.223360	0.248628	0.240611	0.287401	
909000	-47141.334	7.378	0.223360	0.248628	0.240611	0.287401	
910000	-47129.677	7.322	0.223360	0.248628	0.240611	0.287401	
911000	-47136.210	7.251	0.223360	0.248628	0.240611	0.287401	
912000	-47127.933	7.269	0.223360	0.248628	0.240611	0.287401	
913000	-47139.041	7.240	0.226273	0.241940	0.239243	0.292544	
914000	-47153.424	7.318	0.226273	0.241940	0.239243	0.292544	
915000	-47145.594	7.339	0.226273	0.241940	0.239243	0.292544	
916000	-47163.114	7.331	0.235572	0.243568	0.238603	0.282257	
917000	-47146.288	7.359	0.232471	0.241503	0.235719	0.290306	
918000	-47143.416	7.377	0.232471	0.241503	0.235719	0.290306	
919000	-47132.021	7.375	0.232471	0.241503	0.235719	0.290306	
920000	-47111.554	7.397	0.227315	0.242917	0.247862	0.281907	
921000	-47110.737	7.398	0.223671	0.233826	0.246674	0.295828	
922000	-47081.423	7.357	0.234303	0.243375	0.232105	0.290217	
923000	-47095.502	7.345	0.234303	0.243375	0.232105	0.290217	
924000	-47070.617	7.365	0.225817	0.247295	0.238308	0.288579	
925000	-47079.918	7.315	0.225817	0.247295	0.238308	0.288579	
926000	-47119.102	7.290	0.225817	0.247295	0.238308	0.288579	
927000	-47120.472	7.302	0.225817	0.247295	0.238308	0.288579	
928000	-47080.298	7.307	0.225817	0.247295	0.238308	0.288579	
929000	-47083.558	7.389	0.225817	0.247295	0.238308	0.288579	
930000	-47087.972	7.377	0.221470	0.248227	0.245083	0.285220	
931000	-47091.718	7.399	0.221470	0.248227	0.245083	0.285220	
932000	-47088.746	7.387	0.221913	0.240866	0.243026	0.294195	
933000	-47086.524	7.371	0.224978	0.242512	0.248145	0.284365	
934000	-47093.086	7.347	0.224978	0.242512	0.248145	0.284365	
935000	-47091.021	7.339	0.232348	0.236624	0.243580	0.287448	
936000	-47093.871	7.358	0.232348	0.236624	0.243580	0.287448	
937000	-47090.360	7.336	0.232348	0.236624	0.243580	0.287448	
938000	-47101.782	7.344	0.232348	0.236624	0.243580	0.287448	
939000	-47113.287	7.370	0.219502	0.238494	0.241013	0.300992	
940000	-47115.045	7.403	0.222493	0.240732	0.245310	0.291466	
941000	-47111.322	7.363	0.225902	0.238685	0.243360	0.292053	
942000	-47109.312	7.356	0.225902	0.238685	0.243360	0.292053	
943000	-47118.937	7.351	0.230991	0.242780	0.244377	0.281852	
944000	-47126.393	7.285	0.222752	0.252832	0.244059	0.280357	
945000	-47116.617	7.304	0.225936	0.238405	0.247274	0.288386	
946000	-47130.101	7.272	0.229988	0.251150	0.234971	0.283891	
947000	-47143.826	7.251	0.238014	0.243189	0.235920	0.282877	
948000	-47128.890	7.258	0.238195	0.245019	0.231380	0.285406	
949000	-47124.297	7.249	0.230468	0.242101	0.252393	0.275038	
950000	-47120.138	7.261	0.229320	0.240887	0.248439	0.281354	
951000	-47116.789	7.260	0.226132	0.251558	0.239278	0.283032	
952000	-47107.513	7.262	0.226132	0.251558	0.239278	0.283032	
953000	-47088.839	7.202	0.226132	0.251558	0.239278	0.283032	
954000	-47083.145	7.186	0.219119	0.248952	0.242264	0.289664	
955000	-47099.351	7.198	0.220259	0.245655	0.250204	0.283882	
956000	-47113.545	7.249	0.221583	0.241261	0.242826	0.294330	
957000	-47111.887	7.240	0.231684	0.249773	0.239431	0.279112	
958000	-47104.941	7.265	0.229629	0.252407	0.237838	0.280127	
959000	-47091.230	7.199	0.229629	0.252407	0.237838	0.280127	
960000	-47070.618	7.209	0.229629	0.252407	0.237838	0.280127	
961000	-47078.152	7.216	0.222195	0.246068	0.241501	0.290235	
962000	-47094.654	7.233	0.224330	0.245609	0.245699	0.284362	
963000	-47099.413	7.207	0.224330	0.245609	0.245699	0.284362	
964000	-47086.053	7.246	0.229294	0.247360	0.240777	0.282569	
965000	-47078.817	7.239	0.235427	0.244778	0.241329	0.278466	
966000	-47065.311	7.288	0.235427	0.244778	0.241329	0.278466	
967000	-47074.794	7.264	0.235427	0.244778	0.241329	0.278466	
968000	-47086.464	7.298	0.235427	0.244778	0.241329	0.278466	
969000	-47093.861	7.338	0.232175	0.244078	0.246900	0.276847	
970000	-47082.583	7.369	0.222569	0.247950	0.248826	0.280654	
971000	-47078.939	7.359	0.222569	0.247950	0.248826	0.280654	
972000	-47077.321	7.308	0.227885	0.236203	0.249850	0.286062	
973000	-47063.457	7.296	0.222396	0.240150	0.245949	0.291506	
974000	-47080.596	7.310	0.222396	0.240150	0.245949	0.291506	
975000	-47076.359	7.276	0.226257	0.242318	0.245926	0.285499	
976000	-47086.463	7.243	0.226257	0.242318	0.245926	0.285499	
977000	-47082.601	7.263	0.226257	0.242318	0.245926	0.285499	
978000	-47071.789	7.271	0.224060	0.254894	0.237968	0.283078	
979000	-47080.584	7.276	0.218767	0.248995	0.238614	0.293624	
980000	-47042.789	7.251	0.218004	0.250492	0.236857	0.294647	
981000	-47046.536	7.246	0.234741	0.248472	0.239721	0.277067	
982000	-47054.319	7.237	0.221262	0.249900	0.241234	0.287603	
983000	-47051.915	7.257	0.221262	0.249900	0.241234	0.287603	
984000	-47056.767	7.244	0.221262	0.249900	0.241234	0.287603	
985000	-47056.323	7.238	0.221262	0.249900	0.241234	0.287603	
986000	-47062.069	7.223	0.218666	0.244242	0.238022	0.299071	
987000	-47068.402	7.255	0.218666	0.244242	0.238022	0.299071	
988000	-47056.104	7.306	0.218666	0.244242	0.238022	0.299071	
989000	-47040.518	7.321	0.224567	0.240383	0.248532	0.286518	
990000	-47048.269	7.280	0.217966	0.248847	0.239477	0.293711	
991000	-47042.371	7.335	0.231508	0.251170	0.236889	0.280434	
992000	-47022.725	7.351	0.229285	0.242057	0.246799	0.281859	
993000	-47010.453	7.353	0.227727	0.239152	0.250329	0.282793	
994000	-47015.698	7.370	0.227727	0.239152	0.250329	0.282793	
995000	-47023.004	7.245	0.236341	0.240588	0.234026	0.289046	
996000	-47009.376	7.238	0.236341	0.240588	0.234026	0.289046	
997000	-47012.206	7.198	0.233267	0.248057	0.233444	0.285231	
998000	-47029.214	7.252	0.232538	0.236332	0.249950	0.281180	
999000	-47033.035	7.258	0.241732	0.238157	0.241436	0.278675	
1000000	-47027.799	7.300	0.219998	0.243496	0.237529	0.298978	
