[ID: 6262122611]
Gen	LnL	TL	pi(A)	pi(C)	pi(G)	pi(T)	
1	-339555.709	108.492	0.250000	0.250000	0.250000	0.250000	
1000	-312138.834	102.730	0.225320	0.208974	0.223796	0.341910	
2000	-292158.817	97.085	0.225320	0.208974	0.223796	0.341910	
3000	-278243.064	91.392	0.225959	0.208178	0.217200	0.348663	
4000	-265781.382	87.565	0.225959	0.208178	0.217200	0.348663	
5000	-256532.208	84.194	0.223691	0.207224	0.215577	0.353508	
6000	-247415.812	80.679	0.223691	0.207224	0.215577	0.353508	
7000	-237994.988	77.008	0.220893	0.212787	0.218930	0.347389	
8000	-229934.283	74.496	0.214242	0.218697	0.222407	0.344654	
9000	-220960.698	71.613	0.214242	0.218697	0.222407	0.344654	
10000	-213582.053	67.850	0.218108	0.218129	0.220130	0.343634	
11000	-206875.645	64.677	0.218108	0.218129	0.220130	0.343634	
12000	-200900.209	61.724	0.218108	0.218129	0.220130	0.343634	
13000	-194724.268	58.829	0.218108	0.218129	0.220130	0.343634	
14000	-189561.767	56.718	0.218108	0.218129	0.220130	0.343634	
15000	-184701.666	54.504	0.218108	0.218129	0.220130	0.343634	
16000	-180776.127	52.360	0.218108	0.218129	0.220130	0.343634	
17000	-177313.989	50.521	0.218108	0.218129	0.220130	0.343634	
18000	-172720.023	48.908	0.218108	0.218129	0.220130	0.343634	
19000	-169390.758	47.958	0.213149	0.213299	0.230400	0.343151	
20000	-166280.963	46.649	0.208669	0.221934	0.222998	0.346398	
21000	-163311.449	45.162	0.208669	0.221934	0.222998	0.346398	
22000	-160995.464	43.516	0.211407	0.225827	0.224039	0.338727	
23000	-157720.037	42.042	0.211407	0.225827	0.224039	0.338727	
24000	-155991.173	40.580	0.211407	0.225827	0.224039	0.338727	
25000	-153710.632	39.769	0.211407	0.225827	0.224039	0.338727	
26000	-151871.762	38.634	0.211407	0.225827	0.224039	0.338727	
27000	-149633.205	37.773	0.211407	0.225827	0.224039	0.338727	
28000	-147332.455	36.637	0.211407	0.225827	0.224039	0.338727	
29000	-145055.302	35.277	0.211407	0.225827	0.224039	0.338727	
30000	-143576.731	34.696	0.211407	0.225827	0.224039	0.338727	
31000	-140855.156	33.508	0.211407	0.225827	0.224039	0.338727	
32000	-139606.196	32.658	0.211407	0.225827	0.224039	0.338727	
33000	-138267.051	32.014	0.208947	0.226097	0.226062	0.338894	
34000	-136218.856	31.054	0.208947	0.226097	0.226062	0.338894	
35000	-134448.754	30.502	0.210270	0.230979	0.222308	0.336444	
36000	-132879.877	29.911	0.210270	0.230979	0.222308	0.336444	
37000	-131544.072	29.068	0.210270	0.230979	0.222308	0.336444	
38000	-130263.877	28.428	0.210270	0.230979	0.222308	0.336444	
39000	-129321.124	27.862	0.210270	0.230979	0.222308	0.336444	
40000	-127313.009	28.245	0.206875	0.234224	0.231220	0.327681	
41000	-125678.319	27.365	0.206875	0.234224	0.231220	0.327681	
42000	-124439.692	26.782	0.206875	0.234224	0.231220	0.327681	
43000	-122928.022	26.332	0.206875	0.234224	0.231220	0.327681	
44000	-121547.024	25.719	0.206875	0.234224	0.231220	0.327681	
45000	-119586.985	25.148	0.201309	0.241683	0.232171	0.324837	
46000	-118638.196	24.760	0.201309	0.241683	0.232171	0.324837	
47000	-116889.692	24.444	0.204569	0.243617	0.226664	0.325150	
48000	-115951.263	24.144	0.204772	0.237939	0.228226	0.329063	
49000	-115109.717	23.963	0.204772	0.237939	0.228226	0.329063	
50000	-114423.830	23.393	0.204772	0.237939	0.228226	0.329063	
51000	-113177.693	22.946	0.204772	0.237939	0.228226	0.329063	
52000	-111699.350	22.786	0.204772	0.237939	0.228226	0.329063	
53000	-110743.072	22.275	0.204772	0.237939	0.228226	0.329063	
54000	-109712.740	22.015	0.204772	0.237939	0.228226	0.329063	
55000	-108792.350	21.535	0.207946	0.241675	0.234978	0.315401	
56000	-108113.273	21.127	0.207946	0.241675	0.234978	0.315401	
57000	-107531.259	20.893	0.207946	0.241675	0.234978	0.315401	
58000	-106938.673	20.630	0.207946	0.241675	0.234978	0.315401	
59000	-106356.282	20.480	0.199579	0.246504	0.235234	0.318683	
60000	-106047.917	20.273	0.199579	0.246504	0.235234	0.318683	
61000	-105742.061	20.112	0.205133	0.241348	0.233386	0.320133	
62000	-105551.588	19.823	0.205133	0.241348	0.233386	0.320133	
63000	-105182.038	19.759	0.206077	0.247638	0.237510	0.308775	
64000	-104766.009	19.533	0.206077	0.247638	0.237510	0.308775	
65000	-104411.352	19.188	0.202375	0.245113	0.235253	0.317258	
66000	-103931.288	18.945	0.202375	0.245113	0.235253	0.317258	
67000	-103684.399	18.936	0.202375	0.245113	0.235253	0.317258	
68000	-103238.786	18.883	0.202375	0.245113	0.235253	0.317258	
69000	-102911.650	18.808	0.202375	0.245113	0.235253	0.317258	
70000	-102532.664	18.612	0.202375	0.245113	0.235253	0.317258	
71000	-101976.037	20.017	0.206543	0.235047	0.227691	0.330719	
72000	-101209.266	19.837	0.206543	0.235047	0.227691	0.330719	
73000	-100617.363	19.433	0.206543	0.235047	0.227691	0.330719	
74000	-100210.828	19.067	0.204737	0.243754	0.227634	0.323875	
75000	-99854.375	18.774	0.204737	0.243754	0.227634	0.323875	
76000	-99430.738	18.611	0.206904	0.240815	0.234612	0.317669	
77000	-98430.319	18.411	0.206904	0.240815	0.234612	0.317669	
78000	-98116.901	18.106	0.206449	0.248951	0.223235	0.321365	
79000	-97782.561	17.562	0.202061	0.251538	0.234903	0.311497	
80000	-96989.596	17.734	0.206988	0.242966	0.236479	0.313567	
81000	-96400.796	17.616	0.206988	0.242966	0.236479	0.313567	
82000	-95934.292	17.479	0.203550	0.244558	0.233809	0.318083	
83000	-95635.745	17.336	0.203550	0.244558	0.233809	0.318083	
84000	-95336.838	17.202	0.203550	0.244558	0.233809	0.318083	
85000	-94565.881	17.140	0.203550	0.244558	0.233809	0.318083	
86000	-94283.539	17.009	0.203550	0.244558	0.233809	0.318083	
87000	-94075.800	16.978	0.203550	0.244558	0.233809	0.318083	
88000	-93598.661	16.871	0.203550	0.244558	0.233809	0.318083	
89000	-93317.756	16.672	0.203550	0.244558	0.233809	0.318083	
90000	-93060.402	16.615	0.203550	0.244558	0.233809	0.318083	
91000	-92196.643	16.441	0.210498	0.253710	0.232256	0.303535	
92000	-91973.637	16.370	0.213130	0.245185	0.239019	0.302665	
93000	-91649.952	16.212	0.214889	0.241453	0.233242	0.310416	
94000	-91174.235	16.175	0.214889	0.241453	0.233242	0.310416	
95000	-90563.593	16.089	0.209250	0.245006	0.240575	0.305168	
96000	-90059.483	16.024	0.209250	0.245006	0.240575	0.305168	
97000	-89812.120	15.990	0.209250	0.245006	0.240575	0.305168	
98000	-89366.918	15.930	0.209250	0.245006	0.240575	0.305168	
99000	-89065.264	15.860	0.209250	0.245006	0.240575	0.305168	
100000	-88959.148	15.808	0.209250	0.245006	0.240575	0.305168	
101000	-88757.662	15.850	0.209250	0.245006	0.240575	0.305168	
102000	-88584.374	15.824	0.209250	0.245006	0.240575	0.305168	
103000	-88102.173	15.592	0.209250	0.245006	0.240575	0.305168	
104000	-87968.187	15.553	0.209250	0.245006	0.240575	0.305168	
105000	-87769.137	15.606	0.209250	0.245006	0.240575	0.305168	
106000	-87209.310	15.621	0.209250	0.245006	0.240575	0.305168	
107000	-86815.219	15.563	0.207616	0.251365	0.235319	0.305700	
108000	-85973.807	15.475	0.207616	0.251365	0.235319	0.305700	
109000	-85376.134	15.112	0.207616	0.251365	0.235319	0.305700	
110000	-85014.780	15.039	0.205174	0.241072	0.234477	0.319277	
111000	-84613.971	14.993	0.205174	0.241072	0.234477	0.319277	
112000	-83992.096	14.869	0.205174	0.241072	0.234477	0.319277	
113000	-83299.232	14.806	0.205174	0.241072	0.234477	0.319277	
114000	-82983.535	14.856	0.205174	0.241072	0.234477	0.319277	
115000	-82599.214	14.790	0.205174	0.241072	0.234477	0.319277	
116000	-82357.367	14.684	0.205174	0.241072	0.234477	0.319277	
117000	-81932.106	14.608	0.205174	0.241072	0.234477	0.319277	
118000	-81832.895	14.387	0.205174	0.241072	0.234477	0.319277	
119000	-81648.993	14.350	0.210917	0.240011	0.242886	0.306186	
120000	-81127.600	14.363	0.214969	0.244974	0.235136	0.304921	
121000	-80922.462	14.287	0.213559	0.239621	0.238142	0.308678	
122000	-80762.755	14.155	0.213559	0.239621	0.238142	0.308678	
123000	-80607.558	14.074	0.213559	0.239621	0.238142	0.308678	
124000	-80410.032	14.002	0.213559	0.239621	0.238142	0.308678	
125000	-80309.261	14.060	0.213129	0.240528	0.237003	0.309341	
126000	-80235.586	13.983	0.213129	0.240528	0.237003	0.309341	
127000	-79792.425	13.901	0.212644	0.242636	0.239468	0.305252	
128000	-79716.385	13.839	0.212644	0.242636	0.239468	0.305252	
129000	-79583.157	13.873	0.209814	0.244981	0.236055	0.309150	
130000	-79206.910	13.681	0.209814	0.244981	0.236055	0.309150	
131000	-79117.383	13.808	0.209814	0.244981	0.236055	0.309150	
132000	-78956.673	13.820	0.209814	0.244981	0.236055	0.309150	
133000	-78893.585	13.691	0.209814	0.244981	0.236055	0.309150	
134000	-78737.091	13.711	0.209814	0.244981	0.236055	0.309150	
135000	-78565.032	13.644	0.205623	0.246992	0.239379	0.308005	
136000	-78497.060	13.568	0.205623	0.246992	0.239379	0.308005	
137000	-78403.410	13.476	0.206641	0.239528	0.242227	0.311604	
138000	-78264.141	13.393	0.214834	0.245068	0.243769	0.296330	
139000	-78200.757	13.355	0.214834	0.245068	0.243769	0.296330	
140000	-78118.269	13.266	0.214834	0.245068	0.243769	0.296330	
141000	-78057.832	13.193	0.214834	0.245068	0.243769	0.296330	
142000	-78018.383	13.210	0.214834	0.245068	0.243769	0.296330	
143000	-77995.980	13.204	0.214834	0.245068	0.243769	0.296330	
144000	-77843.793	13.159	0.210642	0.238159	0.235642	0.315557	
145000	-77832.221	13.165	0.210642	0.238159	0.235642	0.315557	
146000	-77645.565	13.080	0.215839	0.243164	0.233835	0.307161	
147000	-77330.876	13.062	0.209993	0.247727	0.231557	0.310723	
148000	-77298.658	13.092	0.209993	0.247727	0.231557	0.310723	
149000	-77269.272	13.039	0.209993	0.247727	0.231557	0.310723	
150000	-77153.307	12.975	0.204984	0.242127	0.238807	0.314083	
151000	-77131.546	13.029	0.204984	0.242127	0.238807	0.314083	
152000	-77081.092	12.999	0.204443	0.250148	0.242167	0.303242	
153000	-76955.256	13.481	0.211484	0.236967	0.233431	0.318117	
154000	-76776.648	13.367	0.210438	0.245089	0.240493	0.303980	
155000	-76612.897	13.250	0.208636	0.239187	0.241667	0.310511	
156000	-76124.771	13.149	0.211591	0.244550	0.232630	0.311228	
157000	-76022.920	13.103	0.211591	0.244550	0.232630	0.311228	
158000	-75946.681	13.065	0.211591	0.244550	0.232630	0.311228	
159000	-75848.749	12.876	0.211591	0.244550	0.232630	0.311228	
160000	-75769.388	12.794	0.211591	0.244550	0.232630	0.311228	
161000	-75658.028	12.739	0.211591	0.244550	0.232630	0.311228	
162000	-75552.706	12.766	0.211591	0.244550	0.232630	0.311228	
163000	-75482.156	12.759	0.211591	0.244550	0.232630	0.311228	
164000	-75167.233	12.728	0.211591	0.244550	0.232630	0.311228	
165000	-75133.661	12.713	0.211591	0.244550	0.232630	0.311228	
166000	-75081.282	12.636	0.211591	0.244550	0.232630	0.311228	
167000	-75037.895	12.594	0.205792	0.237078	0.239101	0.318029	
168000	-74965.213	12.567	0.214137	0.245507	0.230143	0.310213	
169000	-74973.271	12.541	0.210335	0.242830	0.230242	0.316593	
170000	-74869.865	12.517	0.210177	0.256075	0.244325	0.289423	
171000	-74837.119	12.496	0.214090	0.253370	0.234748	0.297793	
172000	-74835.884	12.509	0.207678	0.255075	0.236749	0.300498	
173000	-74814.087	12.447	0.209154	0.246390	0.244924	0.299532	
174000	-74763.617	12.408	0.209154	0.246390	0.244924	0.299532	
175000	-74479.770	12.408	0.212926	0.249653	0.244499	0.292923	
176000	-74363.884	12.368	0.212926	0.249653	0.244499	0.292923	
177000	-74036.408	12.841	0.214122	0.248720	0.233936	0.303222	
178000	-73563.710	12.904	0.215961	0.249952	0.235622	0.298466	
179000	-73032.876	12.578	0.215961	0.249952	0.235622	0.298466	
180000	-72684.790	12.376	0.223167	0.246735	0.226820	0.303277	
181000	-72255.614	12.342	0.209589	0.244240	0.229097	0.317074	
182000	-71818.180	12.299	0.209589	0.244240	0.229097	0.317074	
183000	-71484.953	12.192	0.209589	0.244240	0.229097	0.317074	
184000	-71331.903	12.128	0.210058	0.241013	0.239013	0.309915	
185000	-71152.186	12.273	0.222199	0.256478	0.227812	0.293511	
186000	-70693.820	12.168	0.210058	0.241013	0.239013	0.309915	
187000	-70184.258	12.272	0.208399	0.240134	0.231558	0.319908	
188000	-69500.051	12.152	0.208943	0.239945	0.227675	0.323437	
189000	-69235.620	12.125	0.208943	0.239945	0.227675	0.323437	
190000	-68897.142	11.957	0.208943	0.239945	0.227675	0.323437	
191000	-68647.872	11.949	0.208943	0.239945	0.227675	0.323437	
192000	-68078.205	11.922	0.208943	0.239945	0.227675	0.323437	
193000	-67965.368	11.946	0.208943	0.239945	0.227675	0.323437	
194000	-67685.147	11.778	0.208943	0.239945	0.227675	0.323437	
195000	-67504.205	11.642	0.208943	0.239945	0.227675	0.323437	
196000	-67259.522	11.578	0.212493	0.237984	0.225443	0.324079	
197000	-67113.825	11.583	0.213241	0.232490	0.241072	0.313197	
198000	-67050.129	11.456	0.201556	0.236286	0.233009	0.329149	
199000	-66892.966	11.448	0.207982	0.230327	0.245411	0.316280	
200000	-66715.909	11.456	0.202959	0.244663	0.232058	0.320320	
201000	-66659.049	11.503	0.205851	0.238200	0.236817	0.319132	
202000	-66545.169	11.378	0.205851	0.238200	0.236817	0.319132	
203000	-66432.533	11.344	0.208766	0.236690	0.239387	0.315157	
204000	-66374.645	11.298	0.219190	0.238290	0.224360	0.318160	
205000	-66226.828	11.314	0.205245	0.237011	0.232643	0.325101	
206000	-66154.095	11.392	0.205245	0.237011	0.232643	0.325101	
207000	-65937.676	11.301	0.205245	0.237011	0.232643	0.325101	
208000	-65696.958	11.268	0.211401	0.234996	0.236652	0.316951	
209000	-65622.859	11.256	0.213773	0.236399	0.231482	0.318347	
210000	-65454.346	11.223	0.216848	0.243229	0.229953	0.309970	
211000	-65347.887	11.063	0.216848	0.243229	0.229953	0.309970	
212000	-65288.899	11.063	0.219851	0.229134	0.236719	0.314297	
213000	-65045.840	11.214	0.219851	0.229134	0.236719	0.314297	
214000	-64976.121	11.034	0.219851	0.229134	0.236719	0.314297	
215000	-64608.198	11.030	0.208296	0.240441	0.230108	0.321155	
216000	-64420.454	11.005	0.213814	0.246540	0.233456	0.306190	
217000	-64360.915	10.948	0.215898	0.239000	0.237641	0.307461	
218000	-64262.907	11.008	0.218322	0.239095	0.232151	0.310432	
219000	-64219.400	10.993	0.218322	0.239095	0.232151	0.310432	
220000	-64084.030	10.933	0.218322	0.239095	0.232151	0.310432	
221000	-63875.402	10.893	0.218322	0.239095	0.232151	0.310432	
222000	-63745.349	10.875	0.218322	0.239095	0.232151	0.310432	
223000	-63705.199	10.769	0.227287	0.242266	0.230818	0.299630	
224000	-63456.867	10.691	0.215310	0.235098	0.243718	0.305875	
225000	-63291.165	10.601	0.215310	0.235098	0.243718	0.305875	
226000	-63243.871	10.607	0.215310	0.235098	0.243718	0.305875	
227000	-63196.398	10.559	0.208897	0.241312	0.239998	0.309792	
228000	-63140.977	10.492	0.218424	0.243936	0.233110	0.304530	
229000	-63117.301	10.478	0.218424	0.243936	0.233110	0.304530	
230000	-63067.684	10.374	0.218424	0.243936	0.233110	0.304530	
231000	-63058.375	10.339	0.218424	0.243936	0.233110	0.304530	
232000	-63054.136	10.336	0.222191	0.245664	0.232760	0.299385	
233000	-63035.505	10.299	0.222191	0.245664	0.232760	0.299385	
234000	-63032.562	10.411	0.222191	0.245664	0.232760	0.299385	
235000	-63016.854	10.448	0.223424	0.238005	0.231125	0.307446	
236000	-62977.522	10.432	0.223424	0.238005	0.231125	0.307446	
237000	-62983.359	10.405	0.223799	0.232997	0.241606	0.301597	
238000	-62979.989	10.407	0.208226	0.247263	0.230922	0.313589	
239000	-62920.621	10.386	0.211059	0.242227	0.229508	0.317206	
240000	-62908.220	10.342	0.211059	0.242227	0.229508	0.317206	
241000	-62902.433	10.398	0.213675	0.250720	0.233898	0.301708	
242000	-62876.812	10.356	0.213675	0.250720	0.233898	0.301708	
243000	-62846.898	10.287	0.217208	0.244337	0.227195	0.311260	
244000	-62800.344	10.270	0.216493	0.244774	0.236239	0.302494	
245000	-62777.043	10.266	0.216493	0.244774	0.236239	0.302494	
246000	-62775.317	10.296	0.216493	0.244774	0.236239	0.302494	
247000	-62508.657	10.374	0.217049	0.250659	0.236387	0.295905	
248000	-61983.054	10.238	0.217049	0.250659	0.236387	0.295905	
249000	-61556.639	10.181	0.217049	0.250659	0.236387	0.295905	
250000	-60783.790	10.194	0.217049	0.250659	0.236387	0.295905	
251000	-60374.572	10.072	0.217049	0.250659	0.236387	0.295905	
252000	-59639.826	10.038	0.220142	0.248559	0.236048	0.295251	
253000	-59184.901	9.920	0.220142	0.248559	0.236048	0.295251	
254000	-58952.701	9.853	0.220142	0.248559	0.236048	0.295251	
255000	-58830.543	9.834	0.220142	0.248559	0.236048	0.295251	
256000	-58278.885	9.823	0.220142	0.248559	0.236048	0.295251	
257000	-58125.252	9.776	0.223845	0.243211	0.235636	0.297308	
258000	-57926.036	9.754	0.222126	0.237805	0.239030	0.301038	
259000	-57777.369	9.713	0.222126	0.237805	0.239030	0.301038	
260000	-57720.864	9.747	0.217967	0.241433	0.243702	0.296898	
261000	-57638.159	9.772	0.216705	0.240278	0.230259	0.312758	
262000	-57531.262	9.628	0.211054	0.241429	0.241991	0.305526	
263000	-57441.224	9.630	0.211054	0.241429	0.241991	0.305526	
264000	-57388.891	9.664	0.211054	0.241429	0.241991	0.305526	
265000	-57232.310	9.602	0.223053	0.239283	0.238138	0.299526	
266000	-57158.188	9.532	0.223053	0.239283	0.238138	0.299526	
267000	-56907.790	9.489	0.223053	0.239283	0.238138	0.299526	
268000	-56834.906	9.504	0.222715	0.240946	0.231377	0.304961	
269000	-56698.460	9.430	0.222715	0.240946	0.231377	0.304961	
270000	-56636.455	9.409	0.224562	0.234900	0.243945	0.296593	
271000	-56618.929	9.331	0.224562	0.234900	0.243945	0.296593	
272000	-56529.549	9.176	0.207120	0.237121	0.246098	0.309661	
273000	-56509.150	9.208	0.216167	0.242166	0.241610	0.300057	
274000	-56325.296	9.155	0.216167	0.242166	0.241610	0.300057	
275000	-56297.155	9.174	0.216167	0.242166	0.241610	0.300057	
276000	-56286.163	9.203	0.212708	0.245358	0.239796	0.302138	
277000	-56272.163	9.195	0.212708	0.245358	0.239796	0.302138	
278000	-56245.880	9.243	0.212708	0.245358	0.239796	0.302138	
279000	-56206.412	9.203	0.220672	0.252344	0.236066	0.290918	
280000	-56110.717	9.044	0.221184	0.243138	0.239306	0.296372	
281000	-56019.385	9.066	0.221184	0.243138	0.239306	0.296372	
282000	-56001.920	9.107	0.210707	0.249328	0.240729	0.299236	
283000	-55990.445	9.024	0.210518	0.249210	0.246398	0.293874	
284000	-55979.785	9.003	0.221028	0.241773	0.235165	0.302034	
285000	-55902.811	8.966	0.221028	0.241773	0.235165	0.302034	
286000	-55849.900	8.912	0.222754	0.249775	0.241682	0.285789	
287000	-55836.011	8.922	0.222754	0.249775	0.241682	0.285789	
288000	-55805.813	8.896	0.222754	0.249775	0.241682	0.285789	
289000	-55785.324	8.935	0.218140	0.249259	0.246232	0.286369	
290000	-55784.037	8.874	0.216519	0.244409	0.246050	0.293021	
291000	-55768.106	8.920	0.216519	0.244409	0.246050	0.293021	
292000	-55763.606	8.976	0.216519	0.244409	0.246050	0.293021	
293000	-55746.753	9.021	0.216519	0.244409	0.246050	0.293021	
294000	-55735.162	9.063	0.216519	0.244409	0.246050	0.293021	
295000	-55605.458	8.914	0.216519	0.244409	0.246050	0.293021	
296000	-55566.820	8.994	0.216519	0.244409	0.246050	0.293021	
297000	-55559.146	9.008	0.216519	0.244409	0.246050	0.293021	
298000	-55340.890	9.087	0.208330	0.247701	0.246737	0.297232	
299000	-55276.027	8.971	0.208330	0.247701	0.246737	0.297232	
300000	-55224.600	8.910	0.212144	0.254417	0.246324	0.287116	
301000	-55175.937	8.891	0.225344	0.243457	0.237210	0.293988	
302000	-55154.417	8.887	0.211792	0.248222	0.234455	0.305531	
303000	-55133.797	8.973	0.214297	0.239164	0.245860	0.300679	
304000	-54993.099	8.861	0.217337	0.244637	0.241032	0.296994	
305000	-54967.354	8.924	0.217337	0.244637	0.241032	0.296994	
306000	-54884.851	8.974	0.220473	0.243098	0.241699	0.294730	
307000	-54890.267	8.986	0.220473	0.243098	0.241699	0.294730	
308000	-54864.155	8.908	0.218933	0.241970	0.246448	0.292649	
309000	-54823.284	8.910	0.218933	0.241970	0.246448	0.292649	
310000	-54819.758	8.815	0.219005	0.247438	0.249489	0.284068	
311000	-54795.709	8.770	0.219005	0.247438	0.249489	0.284068	
312000	-54802.059	8.801	0.225547	0.240533	0.246637	0.287283	
313000	-54750.068	8.774	0.225547	0.240533	0.246637	0.287283	
314000	-54746.680	8.704	0.224674	0.252821	0.237415	0.285090	
315000	-54753.266	8.740	0.224674	0.252821	0.237415	0.285090	
316000	-54762.049	8.727	0.215030	0.248629	0.238820	0.297520	
317000	-54765.658	8.756	0.216261	0.246060	0.238091	0.299588	
318000	-54745.482	8.763	0.223922	0.248852	0.238576	0.288650	
319000	-54740.095	8.673	0.219868	0.256483	0.246548	0.277102	
320000	-54756.020	8.713	0.218032	0.254617	0.239360	0.287992	
321000	-54714.507	8.723	0.222775	0.248898	0.240534	0.287793	
322000	-54676.918	8.694	0.220914	0.243698	0.239519	0.295869	
323000	-54653.900	8.627	0.220914	0.243698	0.239519	0.295869	
324000	-54635.548	8.551	0.223554	0.244307	0.244798	0.287341	
325000	-54625.994	8.556	0.213916	0.249348	0.246343	0.290393	
326000	-54618.385	8.533	0.213916	0.249348	0.246343	0.290393	
327000	-54620.823	8.568	0.213916	0.249348	0.246343	0.290393	
328000	-54643.505	8.553	0.211558	0.252316	0.241738	0.294388	
329000	-54653.384	8.564	0.221865	0.243131	0.239379	0.295625	
330000	-54634.087	8.612	0.221865	0.243131	0.239379	0.295625	
331000	-54628.457	8.593	0.221865	0.243131	0.239379	0.295625	
332000	-54615.771	8.544	0.221865	0.243131	0.239379	0.295625	
333000	-54609.868	8.512	0.218888	0.245164	0.248331	0.287618	
334000	-54594.712	8.564	0.218888	0.245164	0.248331	0.287618	
335000	-54592.055	8.589	0.218888	0.245164	0.248331	0.287618	
336000	-54591.318	8.579	0.218349	0.246509	0.247482	0.287661	
337000	-54610.852	8.569	0.217586	0.244990	0.244006	0.293418	
338000	-54596.452	8.567	0.217586	0.244990	0.244006	0.293418	
339000	-54598.563	8.548	0.217586	0.244990	0.244006	0.293418	
340000	-54593.100	8.675	0.217586	0.244990	0.244006	0.293418	
341000	-54575.135	8.650	0.217586	0.244990	0.244006	0.293418	
342000	-54600.870	8.693	0.217586	0.244990	0.244006	0.293418	
343000	-54588.195	8.707	0.215767	0.245293	0.246304	0.292636	
344000	-54602.829	8.728	0.219968	0.250985	0.231989	0.297057	
345000	-54590.291	8.713	0.218198	0.253415	0.242871	0.285516	
346000	-54587.306	8.688	0.218198	0.253415	0.242871	0.285516	
347000	-54597.512	8.728	0.218198	0.253415	0.242871	0.285516	
348000	-54606.966	8.704	0.218198	0.253415	0.242871	0.285516	
349000	-54619.723	8.706	0.218198	0.253415	0.242871	0.285516	
350000	-54605.951	8.646	0.218198	0.253415	0.242871	0.285516	
351000	-54598.993	8.633	0.227349	0.248562	0.241383	0.282706	
352000	-54585.736	8.662	0.215296	0.246013	0.243318	0.295374	
353000	-54578.194	8.688	0.217105	0.238481	0.243105	0.301309	
354000	-54575.448	8.706	0.223126	0.246061	0.230808	0.300004	
355000	-54568.064	8.675	0.223126	0.246061	0.230808	0.300004	
356000	-54556.169	8.668	0.223126	0.246061	0.230808	0.300004	
357000	-54534.436	8.641	0.227624	0.252806	0.240730	0.278840	
358000	-54537.761	8.647	0.224335	0.239018	0.246976	0.289671	
359000	-54533.444	8.653	0.212232	0.244966	0.251359	0.291443	
360000	-54537.119	8.698	0.212232	0.244966	0.251359	0.291443	
361000	-54527.877	8.681	0.212232	0.244966	0.251359	0.291443	
362000	-54523.922	8.655	0.212232	0.244966	0.251359	0.291443	
363000	-54520.465	8.638	0.217387	0.249788	0.246950	0.285875	
364000	-54549.336	8.675	0.217387	0.249788	0.246950	0.285875	
365000	-54547.819	8.640	0.217387	0.249788	0.246950	0.285875	
366000	-54542.987	8.639	0.217387	0.249788	0.246950	0.285875	
367000	-54578.202	8.605	0.217387	0.249788	0.246950	0.285875	
368000	-54581.138	8.678	0.219898	0.250809	0.245922	0.283371	
369000	-54584.827	8.648	0.218708	0.254526	0.245643	0.281123	
370000	-54568.376	8.608	0.228885	0.246600	0.235601	0.288914	
371000	-54592.102	8.606	0.224398	0.251453	0.245796	0.278353	
372000	-54589.500	8.593	0.209267	0.253951	0.247077	0.289705	
373000	-54566.375	8.600	0.209267	0.253951	0.247077	0.289705	
374000	-54553.283	8.630	0.209267	0.253951	0.247077	0.289705	
375000	-54555.603	8.633	0.222272	0.245136	0.249768	0.282824	
376000	-54574.643	8.645	0.218746	0.251793	0.240358	0.289103	
377000	-54574.683	8.695	0.215693	0.248727	0.249346	0.286234	
378000	-54565.393	8.713	0.224453	0.245348	0.237595	0.292604	
379000	-54564.410	8.679	0.216909	0.244671	0.242177	0.296243	
380000	-54542.814	8.664	0.217339	0.245050	0.239900	0.297711	
381000	-54545.756	8.593	0.223651	0.253357	0.235698	0.287294	
382000	-54562.783	8.537	0.223651	0.253357	0.235698	0.287294	
383000	-54561.077	8.563	0.217469	0.258096	0.241062	0.283373	
384000	-54557.632	8.557	0.225267	0.248880	0.239954	0.285899	
385000	-54563.272	8.583	0.225267	0.248880	0.239954	0.285899	
386000	-54558.227	8.598	0.212454	0.248848	0.245326	0.293372	
387000	-54561.526	8.595	0.212454	0.248848	0.245326	0.293372	
388000	-54575.025	8.576	0.212454	0.248848	0.245326	0.293372	
389000	-54581.481	8.602	0.212454	0.248848	0.245326	0.293372	
390000	-54556.841	8.662	0.212454	0.248848	0.245326	0.293372	
391000	-54556.624	8.656	0.218038	0.249103	0.246004	0.286855	
392000	-54551.423	8.642	0.218038	0.249103	0.246004	0.286855	
393000	-54529.071	8.967	0.223094	0.233622	0.239037	0.304247	
394000	-54484.585	8.944	0.221358	0.233809	0.242885	0.301948	
395000	-54477.251	8.928	0.221358	0.233809	0.242885	0.301948	
396000	-54351.254	8.879	0.221358	0.233809	0.242885	0.301948	
397000	-54334.482	8.834	0.220955	0.239215	0.239078	0.300752	
398000	-54055.522	8.874	0.220955	0.239215	0.239078	0.300752	
399000	-53939.240	8.841	0.220955	0.239215	0.239078	0.300752	
400000	-53926.701	8.894	0.220955	0.239215	0.239078	0.300752	
401000	-53836.029	8.877	0.220955	0.239215	0.239078	0.300752	
402000	-53824.578	8.911	0.214544	0.235809	0.235121	0.314526	
403000	-53805.283	8.885	0.214544	0.235809	0.235121	0.314526	
404000	-53770.348	8.883	0.214544	0.235809	0.235121	0.314526	
405000	-53799.373	8.903	0.214544	0.235809	0.235121	0.314526	
406000	-53732.109	8.907	0.214544	0.235809	0.235121	0.314526	
407000	-53723.625	8.911	0.219499	0.240227	0.242823	0.297450	
408000	-53721.918	8.824	0.218734	0.243939	0.234933	0.302394	
409000	-53703.248	8.859	0.221389	0.242480	0.234801	0.301330	
410000	-53686.856	8.798	0.221389	0.242480	0.234801	0.301330	
411000	-53670.718	8.745	0.221389	0.242480	0.234801	0.301330	
412000	-53646.380	8.733	0.222487	0.234378	0.235581	0.307554	
413000	-53666.772	8.682	0.224986	0.237179	0.235032	0.302803	
414000	-53673.012	8.647	0.222044	0.233654	0.242670	0.301632	
415000	-53678.751	8.700	0.222044	0.233654	0.242670	0.301632	
416000	-53692.367	8.755	0.222044	0.233654	0.242670	0.301632	
417000	-53677.107	8.748	0.222044	0.233654	0.242670	0.301632	
418000	-53572.772	8.756	0.225490	0.238769	0.241728	0.294013	
419000	-53574.945	8.717	0.225490	0.238769	0.241728	0.294013	
420000	-53581.218	8.745	0.225490	0.238769	0.241728	0.294013	
421000	-53565.898	8.722	0.221065	0.238837	0.242278	0.297820	
422000	-53582.330	8.814	0.221065	0.238837	0.242278	0.297820	
423000	-53566.719	8.827	0.221065	0.238837	0.242278	0.297820	
424000	-53523.889	8.809	0.221065	0.238837	0.242278	0.297820	
425000	-53507.366	8.764	0.221485	0.235796	0.241612	0.301107	
426000	-53485.158	8.746	0.223140	0.243129	0.234041	0.299690	
427000	-53493.697	8.717	0.221326	0.233319	0.241070	0.304285	
428000	-53492.960	8.726	0.221752	0.234856	0.237552	0.305840	
429000	-53489.970	8.751	0.221752	0.234856	0.237552	0.305840	
430000	-53471.129	8.769	0.221752	0.234856	0.237552	0.305840	
431000	-53459.912	8.826	0.221752	0.234856	0.237552	0.305840	
432000	-53459.948	8.809	0.221752	0.234856	0.237552	0.305840	
433000	-53449.349	8.745	0.221752	0.234856	0.237552	0.305840	
434000	-53445.014	8.721	0.221752	0.234856	0.237552	0.305840	
435000	-53212.170	8.508	0.214268	0.257467	0.238253	0.290012	
436000	-53090.630	8.519	0.218489	0.248002	0.237621	0.295887	
437000	-52893.355	8.493	0.220555	0.242771	0.237170	0.299503	
438000	-52730.719	8.434	0.222082	0.248037	0.230944	0.298937	
439000	-52536.151	8.378	0.222082	0.248037	0.230944	0.298937	
440000	-52184.353	8.395	0.222082	0.248037	0.230944	0.298937	
441000	-51895.994	8.367	0.222082	0.248037	0.230944	0.298937	
442000	-51745.006	8.362	0.209871	0.243208	0.236555	0.310366	
443000	-51661.447	8.292	0.227100	0.241640	0.239272	0.291988	
444000	-51598.209	8.297	0.227904	0.242976	0.232512	0.296607	
445000	-51553.658	8.282	0.219328	0.242106	0.239667	0.298899	
446000	-51530.720	8.325	0.219328	0.242106	0.239667	0.298899	
447000	-51499.406	8.373	0.219328	0.242106	0.239667	0.298899	
448000	-51352.551	8.382	0.219328	0.242106	0.239667	0.298899	
449000	-51320.662	8.383	0.219328	0.242106	0.239667	0.298899	
450000	-51267.858	8.304	0.219328	0.242106	0.239667	0.298899	
451000	-51233.167	8.309	0.219328	0.242106	0.239667	0.298899	
452000	-51225.818	8.267	0.219124	0.241310	0.234642	0.304925	
453000	-51230.533	8.261	0.213195	0.252152	0.232202	0.302451	
454000	-51211.920	8.237	0.220236	0.238970	0.229974	0.310820	
455000	-51197.693	8.244	0.226913	0.239920	0.234836	0.298331	
456000	-51205.274	8.265	0.214344	0.247655	0.241269	0.296732	
457000	-51187.457	8.301	0.213738	0.245396	0.229051	0.311816	
458000	-51168.651	8.352	0.219955	0.238904	0.241242	0.299899	
459000	-51130.348	8.358	0.219955	0.238904	0.241242	0.299899	
460000	-51088.383	8.350	0.219955	0.238904	0.241242	0.299899	
461000	-51066.682	8.304	0.215633	0.240559	0.238574	0.305234	
462000	-51045.632	8.228	0.215633	0.240559	0.238574	0.305234	
463000	-51038.522	8.227	0.215633	0.240559	0.238574	0.305234	
464000	-51012.179	8.275	0.218376	0.248207	0.233728	0.299688	
465000	-50988.617	8.243	0.218376	0.248207	0.233728	0.299688	
466000	-50973.233	8.179	0.218376	0.248207	0.233728	0.299688	
467000	-50973.229	8.209	0.218418	0.239743	0.239308	0.302532	
468000	-50944.021	8.231	0.218418	0.239743	0.239308	0.302532	
469000	-50954.787	8.256	0.218418	0.239743	0.239308	0.302532	
470000	-50943.822	8.261	0.211041	0.251034	0.243007	0.294917	
471000	-50929.993	8.130	0.227773	0.245556	0.236207	0.290464	
472000	-50923.742	8.059	0.227773	0.245556	0.236207	0.290464	
473000	-50887.764	8.109	0.218999	0.234146	0.234146	0.312709	
474000	-50889.660	8.165	0.212449	0.238012	0.239066	0.310472	
475000	-50862.132	8.160	0.219273	0.241148	0.233411	0.306168	
476000	-50853.343	8.179	0.218643	0.249508	0.239646	0.292203	
477000	-50870.943	8.213	0.218643	0.249508	0.239646	0.292203	
478000	-50827.176	8.219	0.218643	0.249508	0.239646	0.292203	
479000	-50724.656	8.164	0.226478	0.244649	0.232453	0.296420	
480000	-50564.278	8.145	0.210706	0.249397	0.237871	0.302026	
481000	-50551.843	8.094	0.217564	0.238963	0.249895	0.293577	
482000	-50541.066	8.093	0.224019	0.250360	0.231795	0.293827	
483000	-50517.850	8.035	0.221272	0.237142	0.245058	0.296528	
484000	-50503.033	8.008	0.219370	0.244964	0.229683	0.305983	
485000	-50435.167	8.068	0.219370	0.244964	0.229683	0.305983	
486000	-50389.456	8.078	0.219370	0.244964	0.229683	0.305983	
487000	-50371.884	8.029	0.216551	0.240855	0.241308	0.301285	
488000	-50126.542	8.063	0.216551	0.240855	0.241308	0.301285	
489000	-50105.153	8.003	0.215725	0.245646	0.237236	0.301393	
490000	-50052.951	8.023	0.215725	0.245646	0.237236	0.301393	
491000	-50031.483	8.056	0.215725	0.245646	0.237236	0.301393	
492000	-50009.519	8.035	0.215725	0.245646	0.237236	0.301393	
493000	-50005.442	8.076	0.223476	0.239835	0.235789	0.300899	
494000	-49970.829	8.042	0.223476	0.239835	0.235789	0.300899	
495000	-49951.222	8.045	0.223476	0.239835	0.235789	0.300899	
496000	-49924.115	7.993	0.219517	0.247306	0.237521	0.295656	
497000	-49930.917	7.996	0.220951	0.242902	0.240746	0.295401	
498000	-49923.997	7.920	0.216061	0.242066	0.242197	0.299676	
499000	-49942.664	7.970	0.216061	0.242066	0.242197	0.299676	
500000	-49946.548	7.968	0.216061	0.242066	0.242197	0.299676	
501000	-49936.385	7.966	0.216061	0.242066	0.242197	0.299676	
502000	-49950.143	8.023	0.216061	0.242066	0.242197	0.299676	
503000	-49957.311	8.013	0.223799	0.242083	0.232848	0.301270	
504000	-49940.045	8.033	0.223799	0.242083	0.232848	0.301270	
505000	-49928.488	8.039	0.214581	0.240366	0.238601	0.306452	
506000	-49898.361	8.037	0.214581	0.240366	0.238601	0.306452	
507000	-49906.969	8.097	0.222870	0.245910	0.234097	0.297123	
508000	-49862.041	8.098	0.222870	0.245910	0.234097	0.297123	
509000	-49849.820	8.007	0.222870	0.245910	0.234097	0.297123	
510000	-49825.362	8.033	0.222870	0.245910	0.234097	0.297123	
511000	-49833.640	8.025	0.222870	0.245910	0.234097	0.297123	
512000	-49834.722	8.026	0.212814	0.243447	0.240224	0.303516	
513000	-49831.670	7.970	0.220165	0.245089	0.231555	0.303190	
514000	-49816.148	7.970	0.226653	0.251103	0.234943	0.287300	
515000	-49788.613	7.906	0.226653	0.251103	0.234943	0.287300	
516000	-49777.845	7.922	0.222095	0.247109	0.242691	0.288105	
517000	-49762.583	7.960	0.221204	0.244190	0.244468	0.290139	
518000	-49756.880	8.053	0.221204	0.244190	0.244468	0.290139	
519000	-49754.941	8.065	0.225722	0.234571	0.239286	0.300421	
520000	-49769.690	8.093	0.225722	0.234571	0.239286	0.300421	
521000	-49776.259	8.061	0.211577	0.247485	0.238658	0.302281	
522000	-49766.461	8.012	0.211577	0.247485	0.238658	0.302281	
523000	-49775.136	8.038	0.219891	0.243550	0.235083	0.301475	
524000	-49779.523	8.056	0.219891	0.243550	0.235083	0.301475	
525000	-49792.043	8.048	0.219891	0.243550	0.235083	0.301475	
526000	-49739.920	7.978	0.219891	0.243550	0.235083	0.301475	
527000	-49725.451	7.982	0.219891	0.243550	0.235083	0.301475	
528000	-49709.427	8.015	0.215308	0.250119	0.239579	0.294993	
529000	-49696.208	8.028	0.225946	0.241988	0.236944	0.295122	
530000	-49687.579	7.993	0.220868	0.234880	0.240531	0.303720	
531000	-49654.237	7.975	0.215632	0.241385	0.249407	0.293576	
532000	-49648.345	7.982	0.215632	0.241385	0.249407	0.293576	
533000	-49648.054	7.951	0.214517	0.245863	0.244207	0.295414	
534000	-49665.299	7.954	0.218756	0.247239	0.237674	0.296331	
535000	-49656.834	7.907	0.218756	0.247239	0.237674	0.296331	
536000	-49633.955	7.931	0.218756	0.247239	0.237674	0.296331	
537000	-49609.782	7.978	0.218756	0.247239	0.237674	0.296331	
538000	-49527.362	7.917	0.218756	0.247239	0.237674	0.296331	
539000	-49502.366	7.891	0.218756	0.247239	0.237674	0.296331	
540000	-49490.459	7.831	0.215933	0.248542	0.240404	0.295121	
541000	-49467.070	7.938	0.215933	0.248542	0.240404	0.295121	
542000	-49455.289	7.962	0.224499	0.239515	0.233124	0.302862	
543000	-49434.438	7.911	0.223836	0.249203	0.235509	0.291452	
544000	-49442.328	7.918	0.227799	0.247477	0.229801	0.294923	
545000	-49450.324	7.938	0.227799	0.247477	0.229801	0.294923	
546000	-49477.455	7.917	0.223067	0.249037	0.236961	0.290935	
547000	-49473.993	7.816	0.223067	0.249037	0.236961	0.290935	
548000	-49473.868	7.856	0.223067	0.249037	0.236961	0.290935	
549000	-49437.176	7.817	0.223067	0.249037	0.236961	0.290935	
550000	-49431.695	7.790	0.223067	0.249037	0.236961	0.290935	
551000	-49422.214	7.780	0.223067	0.249037	0.236961	0.290935	
552000	-49420.906	7.778	0.223067	0.249037	0.236961	0.290935	
553000	-49419.580	7.777	0.223067	0.249037	0.236961	0.290935	
554000	-49422.740	7.887	0.223067	0.249037	0.236961	0.290935	
555000	-49430.638	7.925	0.223067	0.249037	0.236961	0.290935	
556000	-49430.866	7.863	0.223662	0.244222	0.234482	0.297634	
557000	-49409.198	7.867	0.220063	0.246835	0.232987	0.300116	
558000	-49423.634	7.868	0.220063	0.246835	0.232987	0.300116	
559000	-49436.109	7.875	0.222109	0.241245	0.243423	0.293223	
560000	-49439.028	7.855	0.222109	0.241245	0.243423	0.293223	
561000	-49440.894	7.869	0.222109	0.241245	0.243423	0.293223	
562000	-49428.628	7.881	0.224923	0.248321	0.236527	0.290228	
563000	-49421.673	7.854	0.224923	0.248321	0.236527	0.290228	
564000	-49454.975	7.916	0.224923	0.248321	0.236527	0.290228	
565000	-49359.232	7.719	0.224923	0.248321	0.236527	0.290228	
566000	-49344.153	7.745	0.217166	0.242617	0.248457	0.291760	
567000	-49329.715	7.756	0.223435	0.244203	0.230115	0.302248	
568000	-49324.859	7.745	0.221111	0.237634	0.242928	0.298328	
569000	-49315.728	7.806	0.227021	0.237909	0.231868	0.303202	
570000	-49325.998	7.795	0.222976	0.237174	0.245631	0.294220	
571000	-49300.145	7.776	0.217237	0.248898	0.243154	0.290711	
572000	-49282.382	7.772	0.217237	0.248898	0.243154	0.290711	
573000	-49295.957	7.809	0.217237	0.248898	0.243154	0.290711	
574000	-49270.146	7.791	0.222176	0.239183	0.233578	0.305063	
575000	-49245.298	7.842	0.222223	0.235682	0.244206	0.297889	
576000	-49245.292	7.852	0.222368	0.239645	0.241306	0.296682	
577000	-49239.229	7.830	0.221429	0.250294	0.236904	0.291373	
578000	-49242.584	7.857	0.221429	0.250294	0.236904	0.291373	
579000	-49204.349	7.833	0.216501	0.240666	0.242795	0.300037	
580000	-49224.615	7.789	0.213625	0.247462	0.234923	0.303989	
581000	-49197.718	7.747	0.224208	0.239963	0.241745	0.294083	
582000	-49162.138	7.709	0.218042	0.239198	0.237593	0.305167	
583000	-49146.475	7.778	0.219941	0.246558	0.244335	0.289166	
584000	-49116.508	7.797	0.219941	0.246558	0.244335	0.289166	
585000	-49099.192	7.816	0.211801	0.247469	0.237001	0.303728	
586000	-49106.325	7.731	0.218495	0.244316	0.239390	0.297799	
587000	-49107.959	7.771	0.218495	0.244316	0.239390	0.297799	
588000	-49136.710	7.793	0.218495	0.244316	0.239390	0.297799	
589000	-49124.467	7.752	0.216709	0.241596	0.242879	0.298816	
590000	-49131.411	7.773	0.221517	0.244318	0.241400	0.292765	
591000	-49099.616	7.689	0.221517	0.244318	0.241400	0.292765	
592000	-49089.301	7.701	0.221517	0.244318	0.241400	0.292765	
593000	-49090.589	7.674	0.215562	0.251542	0.239587	0.293309	
594000	-49088.985	7.702	0.210999	0.242853	0.241278	0.304870	
595000	-49089.931	7.712	0.226533	0.246274	0.233624	0.293570	
596000	-49070.269	7.693	0.226533	0.246274	0.233624	0.293570	
597000	-49075.288	7.652	0.217398	0.250413	0.243083	0.289106	
598000	-49074.504	7.697	0.217398	0.250413	0.243083	0.289106	
599000	-49078.879	7.667	0.216648	0.244221	0.240840	0.298290	
600000	-49076.582	7.643	0.216648	0.244221	0.240840	0.298290	
601000	-49050.005	7.636	0.216648	0.244221	0.240840	0.298290	
602000	-49028.765	7.610	0.226017	0.237134	0.241098	0.295752	
603000	-49051.090	7.601	0.210570	0.250783	0.231564	0.307084	
604000	-49028.296	7.611	0.210570	0.250783	0.231564	0.307084	
605000	-49032.871	7.587	0.216769	0.250330	0.235101	0.297801	
606000	-49039.189	7.601	0.216769	0.250330	0.235101	0.297801	
607000	-49032.608	7.580	0.225214	0.239651	0.233888	0.301247	
608000	-49025.693	7.681	0.217760	0.242667	0.250967	0.288605	
609000	-49003.888	7.669	0.230915	0.244868	0.237732	0.286484	
610000	-49014.502	7.685	0.222630	0.239168	0.232828	0.305374	
611000	-49007.044	7.681	0.222630	0.239168	0.232828	0.305374	
612000	-49012.238	7.775	0.216790	0.248122	0.233357	0.301731	
613000	-48999.216	7.796	0.216790	0.248122	0.233357	0.301731	
614000	-48986.417	7.731	0.222494	0.244199	0.241871	0.291436	
615000	-48985.108	7.669	0.222494	0.244199	0.241871	0.291436	
616000	-48983.878	7.678	0.224833	0.241781	0.236822	0.296563	
617000	-48979.002	7.698	0.224833	0.241781	0.236822	0.296563	
618000	-48982.162	7.728	0.217800	0.239028	0.246410	0.296761	
619000	-48970.315	7.746	0.217852	0.245706	0.243838	0.292604	
620000	-48969.901	7.709	0.217852	0.245706	0.243838	0.292604	
621000	-48970.874	7.704	0.217852	0.245706	0.243838	0.292604	
622000	-48970.687	7.711	0.217852	0.245706	0.243838	0.292604	
623000	-48965.975	7.728	0.229032	0.235602	0.237276	0.298090	
624000	-48966.430	7.778	0.232266	0.235024	0.232772	0.299938	
625000	-48959.112	7.795	0.223944	0.232779	0.246665	0.296612	
626000	-48947.917	7.827	0.220734	0.235857	0.241134	0.302275	
627000	-48957.609	7.799	0.213616	0.247737	0.239039	0.299608	
628000	-48964.024	7.761	0.228382	0.242150	0.240121	0.289346	
629000	-48976.203	7.752	0.228382	0.242150	0.240121	0.289346	
630000	-48977.444	7.706	0.228382	0.242150	0.240121	0.289346	
631000	-48984.003	7.671	0.228382	0.242150	0.240121	0.289346	
632000	-48968.480	7.636	0.217483	0.238146	0.245933	0.298438	
633000	-48961.372	7.638	0.219908	0.245498	0.238050	0.296543	
634000	-48959.818	7.682	0.222651	0.244510	0.238543	0.294295	
635000	-48927.160	7.636	0.222651	0.244510	0.238543	0.294295	
636000	-48933.698	7.666	0.222651	0.244510	0.238543	0.294295	
637000	-48961.326	7.746	0.220660	0.236871	0.245723	0.296746	
638000	-48980.194	7.781	0.220660	0.236871	0.245723	0.296746	
639000	-48959.794	7.741	0.222718	0.245232	0.246154	0.285896	
640000	-48960.935	7.687	0.226102	0.238249	0.231926	0.303723	
641000	-48942.099	7.711	0.213643	0.242304	0.238656	0.305397	
642000	-48944.401	7.689	0.228477	0.240837	0.237265	0.293422	
643000	-48928.456	7.654	0.219766	0.243716	0.247392	0.289126	
644000	-48891.129	7.647	0.216824	0.241406	0.250368	0.291402	
645000	-48870.979	7.617	0.216824	0.241406	0.250368	0.291402	
646000	-48871.354	7.573	0.229704	0.248151	0.236766	0.285379	
647000	-48868.248	7.557	0.229704	0.248151	0.236766	0.285379	
648000	-48864.202	7.545	0.216149	0.250836	0.234553	0.298462	
649000	-48855.281	7.557	0.219958	0.245824	0.246323	0.287894	
650000	-48813.181	7.654	0.219958	0.245824	0.246323	0.287894	
651000	-48798.697	7.657	0.217212	0.248929	0.237522	0.296337	
652000	-48770.255	7.599	0.217212	0.248929	0.237522	0.296337	
653000	-48740.996	7.586	0.215105	0.244868	0.243317	0.296710	
654000	-48604.916	7.618	0.213387	0.244072	0.240888	0.301653	
655000	-48561.110	7.618	0.216461	0.241948	0.239347	0.302245	
656000	-48505.593	7.569	0.220734	0.240009	0.244182	0.295074	
657000	-48527.242	7.579	0.220734	0.240009	0.244182	0.295074	
658000	-48483.945	7.533	0.220734	0.240009	0.244182	0.295074	
659000	-48478.770	7.554	0.220734	0.240009	0.244182	0.295074	
660000	-48483.183	7.541	0.220734	0.240009	0.244182	0.295074	
661000	-48465.988	7.508	0.220734	0.240009	0.244182	0.295074	
662000	-48476.107	7.519	0.220734	0.240009	0.244182	0.295074	
663000	-48477.849	7.472	0.220734	0.240009	0.244182	0.295074	
664000	-48483.230	7.481	0.220734	0.240009	0.244182	0.295074	
665000	-48492.002	7.534	0.220734	0.240009	0.244182	0.295074	
666000	-48473.518	7.568	0.220734	0.240009	0.244182	0.295074	
667000	-48474.181	7.572	0.226323	0.240967	0.237639	0.295070	
668000	-48470.873	7.532	0.226323	0.240967	0.237639	0.295070	
669000	-48470.201	7.600	0.226323	0.240967	0.237639	0.295070	
670000	-48471.852	7.613	0.226323	0.240967	0.237639	0.295070	
671000	-48472.811	7.641	0.227390	0.241347	0.237364	0.293899	
672000	-48452.969	7.610	0.227390	0.241347	0.237364	0.293899	
673000	-48419.643	7.610	0.222348	0.240758	0.238596	0.298298	
674000	-48399.019	7.612	0.222280	0.243877	0.234926	0.298917	
675000	-48417.706	7.615	0.222280	0.243877	0.234926	0.298917	
676000	-48422.561	7.673	0.222280	0.243877	0.234926	0.298917	
677000	-48427.291	7.661	0.228047	0.238001	0.245329	0.288623	
678000	-48407.853	7.665	0.228047	0.238001	0.245329	0.288623	
679000	-48394.131	7.651	0.227143	0.241320	0.232886	0.298650	
680000	-48371.517	7.649	0.216841	0.240572	0.239754	0.302832	
681000	-48370.719	7.673	0.214509	0.244048	0.249175	0.292269	
682000	-48371.298	7.676	0.214509	0.244048	0.249175	0.292269	
683000	-48391.951	7.694	0.224736	0.245850	0.241272	0.288142	
684000	-48384.879	7.641	0.224736	0.245850	0.241272	0.288142	
685000	-48362.806	7.639	0.227976	0.239281	0.241621	0.291122	
686000	-48366.529	7.599	0.227976	0.239281	0.241621	0.291122	
687000	-48359.312	7.599	0.227976	0.239281	0.241621	0.291122	
688000	-48377.758	7.605	0.224515	0.236899	0.245625	0.292961	
689000	-48388.879	7.630	0.224515	0.236899	0.245625	0.292961	
690000	-48365.881	7.600	0.221030	0.245178	0.243337	0.290455	
691000	-48356.007	7.587	0.221030	0.245178	0.243337	0.290455	
692000	-48354.958	7.659	0.221030	0.245178	0.243337	0.290455	
693000	-48347.915	7.697	0.221030	0.245178	0.243337	0.290455	
694000	-48343.593	7.597	0.221030	0.245178	0.243337	0.290455	
695000	-48328.263	7.588	0.222095	0.240240	0.244537	0.293128	
696000	-48333.342	7.557	0.222095	0.240240	0.244537	0.293128	
697000	-48341.097	7.572	0.226132	0.243105	0.238008	0.292756	
698000	-48348.568	7.559	0.226132	0.243105	0.238008	0.292756	
699000	-48362.901	7.528	0.226132	0.243105	0.238008	0.292756	
700000	-48347.123	7.501	0.226132	0.243105	0.238008	0.292756	
701000	-48320.768	7.528	0.226132	0.243105	0.238008	0.292756	
702000	-48314.630	7.477	0.226132	0.243105	0.238008	0.292756	
703000	-48310.738	7.496	0.226132	0.243105	0.238008	0.292756	
704000	-48307.438	7.486	0.232156	0.238416	0.238849	0.290579	
705000	-48308.336	7.465	0.217255	0.237483	0.255002	0.290260	
706000	-48311.169	7.417	0.217255	0.237483	0.255002	0.290260	
707000	-48296.585	7.403	0.225439	0.245834	0.242447	0.286280	
708000	-48283.834	7.404	0.225439	0.245834	0.242447	0.286280	
709000	-48310.294	7.399	0.222585	0.240212	0.237306	0.299898	
710000	-48334.553	7.441	0.222585	0.240212	0.237306	0.299898	
711000	-48328.861	7.483	0.222585	0.240212	0.237306	0.299898	
712000	-48340.862	7.507	0.222585	0.240212	0.237306	0.299898	
713000	-48328.002	7.496	0.222585	0.240212	0.237306	0.299898	
714000	-48347.808	7.556	0.222583	0.247635	0.234278	0.295505	
715000	-48325.884	7.580	0.217199	0.240552	0.246920	0.295329	
716000	-48292.328	7.585	0.227155	0.241843	0.228950	0.302052	
717000	-48296.087	7.577	0.234370	0.238049	0.238641	0.288940	
718000	-48273.820	7.562	0.218996	0.245662	0.234152	0.301190	
719000	-48264.637	7.522	0.218996	0.245662	0.234152	0.301190	
720000	-48243.351	7.544	0.218996	0.245662	0.234152	0.301190	
721000	-48241.941	7.569	0.222057	0.241204	0.240067	0.296673	
722000	-48242.050	7.566	0.222057	0.241204	0.240067	0.296673	
723000	-48213.918	7.591	0.222057	0.241204	0.240067	0.296673	
724000	-48235.236	7.625	0.222057	0.241204	0.240067	0.296673	
725000	-48241.645	7.601	0.222955	0.241314	0.241638	0.294092	
726000	-48239.287	7.562	0.222955	0.241314	0.241638	0.294092	
727000	-48263.735	7.597	0.222955	0.241314	0.241638	0.294092	
728000	-48277.339	7.658	0.220564	0.249592	0.232677	0.297167	
729000	-48292.255	7.610	0.214084	0.249061	0.236178	0.300677	
730000	-48296.212	7.627	0.213673	0.244875	0.245863	0.295589	
731000	-48282.803	7.629	0.226433	0.243329	0.240824	0.289414	
732000	-48299.886	7.642	0.231838	0.245240	0.243046	0.279877	
733000	-48285.248	7.614	0.231838	0.245240	0.243046	0.279877	
734000	-48273.072	7.614	0.222435	0.240361	0.243504	0.293700	
735000	-48285.515	7.664	0.222435	0.240361	0.243504	0.293700	
736000	-48287.665	7.717	0.222435	0.240361	0.243504	0.293700	
737000	-48290.742	7.631	0.221951	0.245826	0.237796	0.294427	
738000	-48283.430	7.651	0.221951	0.245826	0.237796	0.294427	
739000	-48283.483	7.618	0.221951	0.245826	0.237796	0.294427	
740000	-48278.958	7.624	0.221024	0.244093	0.246897	0.287986	
741000	-48285.125	7.627	0.221149	0.241393	0.245847	0.291611	
742000	-48279.907	7.672	0.220101	0.239512	0.243391	0.296996	
743000	-48279.811	7.725	0.222386	0.244108	0.243511	0.289994	
744000	-48252.212	7.730	0.222386	0.244108	0.243511	0.289994	
745000	-48245.887	7.682	0.222386	0.244108	0.243511	0.289994	
746000	-48264.776	7.646	0.222386	0.244108	0.243511	0.289994	
747000	-48243.467	7.619	0.222386	0.244108	0.243511	0.289994	
748000	-48231.675	7.635	0.222386	0.244108	0.243511	0.289994	
749000	-48246.541	7.690	0.222386	0.244108	0.243511	0.289994	
750000	-48256.772	7.693	0.229504	0.242504	0.239848	0.288143	
751000	-48246.966	7.665	0.229504	0.242504	0.239848	0.288143	
752000	-48261.687	7.708	0.229504	0.242504	0.239848	0.288143	
753000	-48257.898	7.685	0.229504	0.242504	0.239848	0.288143	
754000	-48269.019	7.625	0.229504	0.242504	0.239848	0.288143	
755000	-48262.910	7.544	0.229504	0.242504	0.239848	0.288143	
756000	-48264.126	7.576	0.229504	0.242504	0.239848	0.288143	
757000	-48228.202	7.587	0.229504	0.242504	0.239848	0.288143	
758000	-48259.801	7.604	0.216151	0.247068	0.240725	0.296055	
759000	-48239.286	7.536	0.216151	0.247068	0.240725	0.296055	
760000	-48237.457	7.551	0.229817	0.242573	0.234739	0.292871	
761000	-48228.820	7.476	0.223090	0.250413	0.240822	0.285674	
762000	-48229.272	7.474	0.221114	0.248048	0.243077	0.287760	
763000	-48215.363	7.498	0.221114	0.248048	0.243077	0.287760	
764000	-48226.904	7.512	0.219798	0.242527	0.242635	0.295041	
765000	-48224.614	7.542	0.219798	0.242527	0.242635	0.295041	
766000	-48216.547	7.525	0.219798	0.242527	0.242635	0.295041	
767000	-48238.728	7.527	0.219798	0.242527	0.242635	0.295041	
768000	-48231.781	7.521	0.219798	0.242527	0.242635	0.295041	
769000	-48216.630	7.507	0.219798	0.242527	0.242635	0.295041	
770000	-48222.301	7.520	0.229831	0.239354	0.245927	0.284889	
771000	-48208.628	7.495	0.219896	0.241202	0.235128	0.303774	
772000	-48196.294	7.494	0.231609	0.237417	0.236666	0.294309	
773000	-48184.700	7.530	0.231609	0.237417	0.236666	0.294309	
774000	-48217.748	7.568	0.231609	0.237417	0.236666	0.294309	
775000	-48203.572	7.572	0.231239	0.243445	0.243887	0.281430	
776000	-48196.876	7.567	0.231239	0.243445	0.243887	0.281430	
777000	-48220.334	7.579	0.219246	0.241598	0.240173	0.298982	
778000	-48220.648	7.524	0.219246	0.241598	0.240173	0.298982	
779000	-48218.393	7.547	0.232552	0.240779	0.240108	0.286561	
780000	-48227.645	7.607	0.224483	0.237247	0.245319	0.292951	
781000	-48040.422	7.836	0.238932	0.238213	0.235222	0.287633	
782000	-47885.046	7.805	0.229298	0.232211	0.246060	0.292432	
783000	-47739.280	7.757	0.230414	0.239023	0.226492	0.304071	
784000	-47703.268	7.756	0.230414	0.239023	0.226492	0.304071	
785000	-47672.739	7.708	0.218329	0.243280	0.242814	0.295577	
786000	-47659.601	7.680	0.218329	0.243280	0.242814	0.295577	
787000	-47658.469	7.730	0.228671	0.241118	0.235724	0.294487	
788000	-47651.459	7.752	0.228671	0.241118	0.235724	0.294487	
789000	-47631.093	7.696	0.228671	0.241118	0.235724	0.294487	
790000	-47599.598	7.663	0.235293	0.239680	0.239412	0.285615	
791000	-47563.673	7.647	0.235293	0.239680	0.239412	0.285615	
792000	-47551.613	7.580	0.235293	0.239680	0.239412	0.285615	
793000	-47545.144	7.569	0.231841	0.242022	0.232315	0.293822	
794000	-47546.765	7.552	0.229699	0.242990	0.231152	0.296158	
795000	-47550.343	7.534	0.229699	0.242990	0.231152	0.296158	
796000	-47560.488	7.577	0.221922	0.243045	0.242224	0.292810	
797000	-47566.729	7.505	0.221922	0.243045	0.242224	0.292810	
798000	-47557.308	7.487	0.221922	0.243045	0.242224	0.292810	
799000	-47519.340	7.348	0.228673	0.242790	0.236010	0.292526	
800000	-47531.423	7.346	0.228673	0.242790	0.236010	0.292526	
801000	-47523.846	7.405	0.228673	0.242790	0.236010	0.292526	
802000	-47499.036	7.389	0.229187	0.244922	0.239786	0.286104	
803000	-47503.524	7.437	0.229187	0.244922	0.239786	0.286104	
804000	-47484.826	7.408	0.229187	0.244922	0.239786	0.286104	
805000	-47471.712	7.459	0.225028	0.240345	0.238006	0.296621	
806000	-47477.428	7.388	0.223592	0.248492	0.240327	0.287589	
807000	-47475.211	7.397	0.231096	0.248433	0.231313	0.289158	
808000	-47456.372	7.337	0.231096	0.248433	0.231313	0.289158	
809000	-47447.307	7.397	0.222455	0.239948	0.236103	0.301494	
810000	-47445.453	7.434	0.235743	0.238857	0.237510	0.287890	
811000	-47454.452	7.434	0.235743	0.238857	0.237510	0.287890	
812000	-47449.416	7.464	0.221520	0.236489	0.246642	0.295349	
813000	-47464.392	7.441	0.224873	0.248674	0.246384	0.280069	
814000	-47422.803	7.365	0.215644	0.253433	0.234295	0.296628	
815000	-47400.213	7.399	0.229967	0.245438	0.236074	0.288521	
816000	-47415.642	7.377	0.229967	0.245438	0.236074	0.288521	
817000	-47415.999	7.384	0.229967	0.245438	0.236074	0.288521	
818000	-47426.520	7.428	0.229967	0.245438	0.236074	0.288521	
819000	-47418.079	7.348	0.229967	0.245438	0.236074	0.288521	
820000	-47402.177	7.352	0.229967	0.245438	0.236074	0.288521	
821000	-47363.573	7.347	0.230852	0.235621	0.239256	0.294271	
822000	-47382.812	7.398	0.230852	0.235621	0.239256	0.294271	
823000	-47367.408	7.317	0.230852	0.235621	0.239256	0.294271	
824000	-47370.666	7.365	0.228330	0.232333	0.241620	0.297717	
825000	-47339.410	7.373	0.222586	0.242119	0.236790	0.298504	
826000	-47354.846	7.394	0.222586	0.242119	0.236790	0.298504	
827000	-47339.346	7.410	0.222586	0.242119	0.236790	0.298504	
828000	-47330.721	7.387	0.225352	0.236768	0.244187	0.293694	
829000	-47305.786	7.343	0.225537	0.244010	0.241106	0.289347	
830000	-47301.285	7.316	0.225537	0.244010	0.241106	0.289347	
831000	-47304.010	7.341	0.230365	0.244092	0.234057	0.291486	
832000	-47293.722	7.358	0.229232	0.250784	0.229909	0.290075	
833000	-47288.704	7.354	0.221521	0.232521	0.250512	0.295446	
834000	-47288.169	7.338	0.231560	0.254807	0.229461	0.284172	
835000	-47304.319	7.333	0.225045	0.249896	0.243671	0.281388	
836000	-47309.201	7.284	0.225045	0.249896	0.243671	0.281388	
837000	-47338.832	7.289	0.226410	0.238037	0.245898	0.289655	
838000	-47349.255	7.333	0.233291	0.246335	0.233668	0.286706	
839000	-47335.120	7.313	0.233291	0.246335	0.233668	0.286706	
840000	-47330.500	7.358	0.227110	0.244625	0.236505	0.291760	
841000	-47314.709	7.298	0.227110	0.244625	0.236505	0.291760	
842000	-47312.653	7.272	0.217103	0.251677	0.238317	0.292903	
843000	-47288.060	7.276	0.225276	0.246494	0.237368	0.290862	
844000	-47291.787	7.330	0.225276	0.246494	0.237368	0.290862	
845000	-47296.343	7.290	0.228338	0.245821	0.243431	0.282411	
846000	-47275.376	7.310	0.228338	0.245821	0.243431	0.282411	
847000	-47300.693	7.296	0.226998	0.244967	0.244089	0.283946	
848000	-47295.858	7.309	0.226998	0.244967	0.244089	0.283946	
849000	-47301.629	7.305	0.228404	0.243220	0.235046	0.293329	
850000	-47282.926	7.366	0.228404	0.243220	0.235046	0.293329	
851000	-47285.837	7.395	0.228404	0.243220	0.235046	0.293329	
852000	-47275.208	7.408	0.228404	0.243220	0.235046	0.293329	
853000	-47260.091	7.417	0.225353	0.237035	0.234331	0.303281	
854000	-47252.814	7.414	0.229910	0.238396	0.241780	0.289914	
855000	-47251.520	7.414	0.229910	0.238396	0.241780	0.289914	
856000	-47261.499	7.442	0.229910	0.238396	0.241780	0.289914	
857000	-47271.566	7.410	0.229910	0.238396	0.241780	0.289914	
858000	-47285.820	7.427	0.231545	0.244170	0.238165	0.286120	
859000	-47279.056	7.390	0.231545	0.244170	0.238165	0.286120	
860000	-47272.791	7.370	0.231545	0.244170	0.238165	0.286120	
861000	-47254.762	7.341	0.231545	0.244170	0.238165	0.286120	
862000	-47238.710	7.371	0.231545	0.244170	0.238165	0.286120	
863000	-47245.399	7.371	0.231545	0.244170	0.238165	0.286120	
864000	-47248.716	7.354	0.232310	0.239226	0.237982	0.290481	
865000	-47246.026	7.299	0.232310	0.239226	0.237982	0.290481	
866000	-47249.151	7.270	0.226571	0.239414	0.246193	0.287821	
867000	-47264.241	7.241	0.228723	0.232906	0.245895	0.292477	
868000	-47266.998	7.257	0.227677	0.233812	0.244728	0.293783	
869000	-47285.513	7.259	0.221493	0.241821	0.243933	0.292752	
870000	-47268.375	7.286	0.221493	0.241821	0.243933	0.292752	
871000	-47275.648	7.288	0.221327	0.243925	0.242907	0.291840	
872000	-47285.369	7.321	0.221327	0.243925	0.242907	0.291840	
873000	-47274.744	7.320	0.224143	0.245230	0.240496	0.290131	
874000	-47252.253	7.295	0.224143	0.245230	0.240496	0.290131	
875000	-47278.125	7.310	0.235262	0.240204	0.235058	0.289477	
876000	-47267.952	7.285	0.222893	0.240337	0.243116	0.293654	
877000	-47242.028	7.273	0.222893	0.240337	0.243116	0.293654	
878000	-47215.144	7.268	0.222893	0.240337	0.243116	0.293654	
879000	-47212.991	7.259	0.225085	0.244636	0.237811	0.292467	
880000	-47177.601	7.201	0.225085	0.244636	0.237811	0.292467	
881000	-47178.447	7.188	0.225085	0.244636	0.237811	0.292467	
882000	-47178.633	7.174	0.231739	0.239738	0.241619	0.286904	
883000	-47193.598	7.209	0.231739	0.239738	0.241619	0.286904	
884000	-47212.481	7.205	0.237397	0.245485	0.230306	0.286812	
885000	-47203.463	7.202	0.237397	0.245485	0.230306	0.286812	
886000	-47221.712	7.262	0.222383	0.247835	0.239861	0.289921	
887000	-47250.028	7.264	0.228864	0.242206	0.237313	0.291616	
888000	-47246.584	7.237	0.228864	0.242206	0.237313	0.291616	
889000	-47237.392	7.276	0.228864	0.242206	0.237313	0.291616	
890000	-47245.487	7.257	0.220516	0.245104	0.247367	0.287013	
891000	-47236.214	7.274	0.222428	0.237904	0.236463	0.303205	
892000	-47244.788	7.292	0.222428	0.237904	0.236463	0.303205	
893000	-47248.130	7.329	0.222428	0.237904	0.236463	0.303205	
894000	-47264.704	7.345	0.222428	0.237904	0.236463	0.303205	
895000	-47287.531	7.366	0.226122	0.246510	0.245339	0.282029	
896000	-47283.015	7.377	0.239893	0.239327	0.230722	0.290058	
897000	-47269.151	7.398	0.235597	0.243905	0.232664	0.287835	
898000	-47246.572	7.394	0.235597	0.243905	0.232664	0.287835	
899000	-47259.570	7.425	0.215057	0.246891	0.243035	0.295017	
900000	-47240.390	7.394	0.229607	0.238788	0.234383	0.297221	
901000	-47254.035	7.411	0.229607	0.238788	0.234383	0.297221	
902000	-47266.188	7.446	0.229607	0.238788	0.234383	0.297221	
903000	-47284.354	7.465	0.229607	0.238788	0.234383	0.297221	
904000	-47261.524	7.451	0.229607	0.238788	0.234383	0.297221	
905000	-47269.373	7.440	0.229607	0.238788	0.234383	0.297221	
906000	-47286.953	7.518	0.229607	0.238788	0.234383	0.297221	
907000	-47282.992	7.495	0.232449	0.232857	0.236141	0.298553	
908000	-47274.450	7.504	0.232449	0.232857	0.236141	0.298553	
909000	-47275.790	7.540	0.232449	0.232857	0.236141	0.298553	
910000	-47250.694	7.541	0.232449	0.232857	0.236141	0.298553	
911000	-47240.134	7.560	0.231052	0.238497	0.237236	0.293216	
912000	-47245.672	7.563	0.231052	0.238497	0.237236	0.293216	
913000	-47242.206	7.555	0.231052	0.238497	0.237236	0.293216	
914000	-47255.966	7.479	0.231052	0.238497	0.237236	0.293216	
915000	-47269.831	7.527	0.229744	0.239458	0.237219	0.293579	
916000	-47231.313	7.484	0.231594	0.239223	0.238917	0.290266	
917000	-47219.228	7.455	0.226646	0.243482	0.237454	0.292419	
918000	-47230.033	7.427	0.226296	0.238023	0.239552	0.296130	
919000	-47238.717	7.457	0.226296	0.238023	0.239552	0.296130	
920000	-47237.248	7.532	0.226296	0.238023	0.239552	0.296130	
921000	-47257.263	7.528	0.231944	0.232893	0.235902	0.299261	
922000	-47241.569	7.495	0.223966	0.236555	0.229554	0.309925	
923000	-47227.199	7.454	0.219007	0.240327	0.235158	0.305508	
924000	-47243.888	7.475	0.237832	0.233858	0.230869	0.297441	
925000	-47249.017	7.482	0.225166	0.237370	0.228491	0.308973	
926000	-47250.361	7.466	0.230661	0.247069	0.236494	0.285776	
927000	-47249.888	7.482	0.226761	0.237887	0.244809	0.290542	
928000	-47266.977	7.466	0.226761	0.237887	0.244809	0.290542	
929000	-47250.904	7.440	0.222109	0.247234	0.238071	0.292585	
930000	-47225.445	7.415	0.227811	0.242242	0.232470	0.297477	
931000	-47212.683	7.365	0.227811	0.242242	0.232470	0.297477	
932000	-47197.499	7.350	0.227811	0.242242	0.232470	0.297477	
933000	-47204.974	7.371	0.227811	0.242242	0.232470	0.297477	
934000	-47200.543	7.341	0.225121	0.245745	0.240318	0.288816	
935000	-47206.818	7.349	0.225121	0.245745	0.240318	0.288816	
936000	-47219.473	7.326	0.225121	0.245745	0.240318	0.288816	
937000	-47211.961	7.350	0.234480	0.242231	0.235503	0.287786	
938000	-47195.077	7.316	0.234480	0.242231	0.235503	0.287786	
939000	-47200.201	7.285	0.234480	0.242231	0.235503	0.287786	
940000	-47196.585	7.281	0.225297	0.246754	0.237740	0.290209	
941000	-47195.837	7.318	0.229957	0.239301	0.233556	0.297187	
942000	-47206.783	7.311	0.227751	0.241463	0.241297	0.289489	
943000	-47206.306	7.376	0.227751	0.241463	0.241297	0.289489	
944000	-47195.750	7.378	0.227751	0.241463	0.241297	0.289489	
945000	-47204.319	7.395	0.227751	0.241463	0.241297	0.289489	
946000	-47207.749	7.381	0.227751	0.241463	0.241297	0.289489	
947000	-47184.835	7.311	0.227751	0.241463	0.241297	0.289489	
948000	-47227.136	7.291	0.227751	0.241463	0.241297	0.289489	
949000	-47222.190	7.287	0.227751	0.241463	0.241297	0.289489	
950000	-47226.096	7.263	0.231961	0.242486	0.239817	0.285735	
951000	-47230.998	7.210	0.231961	0.242486	0.239817	0.285735	
952000	-47234.096	7.200	0.231961	0.242486	0.239817	0.285735	
953000	-47226.418	7.233	0.232968	0.242032	0.237403	0.287597	
954000	-47232.979	7.247	0.232968	0.242032	0.237403	0.287597	
955000	-47223.202	7.219	0.226232	0.243372	0.238888	0.291508	
956000	-47227.246	7.236	0.226232	0.243372	0.238888	0.291508	
957000	-47208.942	7.221	0.226232	0.243372	0.238888	0.291508	
958000	-47197.613	7.226	0.232928	0.244060	0.241376	0.281635	
959000	-47189.626	7.262	0.229428	0.251551	0.240241	0.278780	
960000	-47187.801	7.303	0.219167	0.240975	0.244112	0.295747	
961000	-47208.089	7.343	0.219167	0.240975	0.244112	0.295747	
962000	-47210.630	7.282	0.225908	0.243431	0.236826	0.293835	
963000	-47203.827	7.231	0.225908	0.243431	0.236826	0.293835	
964000	-47206.249	7.256	0.225908	0.243431	0.236826	0.293835	
965000	-47222.904	7.225	0.233056	0.237145	0.243835	0.285964	
966000	-47228.010	7.188	0.221627	0.249037	0.239172	0.290164	
967000	-47216.596	7.166	0.230063	0.237542	0.245874	0.286521	
968000	-47219.779	7.206	0.234106	0.239996	0.237031	0.288867	
969000	-47227.060	7.250	0.234106	0.239996	0.237031	0.288867	
970000	-47222.838	7.269	0.234106	0.239996	0.237031	0.288867	
971000	-47226.930	7.279	0.233396	0.243317	0.238225	0.285062	
972000	-47234.439	7.332	0.235038	0.247227	0.238406	0.279329	
973000	-47232.853	7.350	0.230513	0.233661	0.237283	0.298542	
974000	-47212.727	7.309	0.228331	0.238558	0.246820	0.286291	
975000	-47224.187	7.319	0.228331	0.238558	0.246820	0.286291	
976000	-47214.213	7.275	0.228331	0.238558	0.246820	0.286291	
977000	-47213.576	7.311	0.228438	0.253011	0.234790	0.283761	
978000	-47225.780	7.285	0.229290	0.237417	0.242414	0.290879	
979000	-47224.041	7.282	0.233675	0.236440	0.237334	0.292551	
980000	-47231.714	7.252	0.233675	0.236440	0.237334	0.292551	
981000	-47244.871	7.277	0.233675	0.236440	0.237334	0.292551	
982000	-47234.476	7.250	0.225717	0.245402	0.237565	0.291316	
983000	-47235.042	7.251	0.225717	0.245402	0.237565	0.291316	
984000	-47272.413	7.332	0.223732	0.239458	0.242509	0.294301	
985000	-47251.060	7.300	0.223732	0.239458	0.242509	0.294301	
986000	-47251.405	7.281	0.223732	0.239458	0.242509	0.294301	
987000	-47230.849	7.264	0.227321	0.241601	0.232805	0.298274	
988000	-47238.483	7.289	0.227321	0.241601	0.232805	0.298274	
989000	-47240.083	7.281	0.227321	0.241601	0.232805	0.298274	
990000	-47235.511	7.316	0.227321	0.241601	0.232805	0.298274	
991000	-47237.760	7.335	0.233157	0.243347	0.234114	0.289382	
992000	-47207.522	7.310	0.233157	0.243347	0.234114	0.289382	
993000	-47190.771	7.289	0.233157	0.243347	0.234114	0.289382	
994000	-47209.649	7.326	0.237947	0.242878	0.233989	0.285186	
995000	-47228.001	7.363	0.237947	0.242878	0.233989	0.285186	
996000	-47212.805	7.317	0.237947	0.242878	0.233989	0.285186	
997000	-47213.839	7.376	0.235626	0.242932	0.233591	0.287851	
998000	-47204.121	7.380	0.223624	0.237676	0.239639	0.299061	
999000	-47199.038	7.380	0.223800	0.243422	0.230649	0.302129	
1000000	-47211.649	7.410	0.229843	0.239082	0.241844	0.289230	
