[ID: 6262122611]
Gen	LnL	TL	pi(A)	pi(C)	pi(G)	pi(T)	
1	-338474.606	108.500	0.250000	0.250000	0.250000	0.250000	
1000	-316015.650	103.943	0.212171	0.226940	0.216024	0.344864	
2000	-297639.333	99.998	0.227674	0.208214	0.218993	0.345119	
3000	-281682.628	94.401	0.216733	0.215017	0.220276	0.347975	
4000	-269428.593	90.861	0.216461	0.213356	0.223769	0.346414	
5000	-258293.180	87.158	0.222803	0.204512	0.220616	0.352070	
6000	-247306.447	83.409	0.222803	0.204512	0.220616	0.352070	
7000	-239676.451	80.351	0.222803	0.204512	0.220616	0.352070	
8000	-231317.953	77.790	0.224331	0.208160	0.220715	0.346794	
9000	-222870.122	71.653	0.215298	0.216541	0.218642	0.349519	
10000	-213678.891	69.286	0.215298	0.216541	0.218642	0.349519	
11000	-207235.781	66.386	0.215298	0.216541	0.218642	0.349519	
12000	-200880.156	63.814	0.215298	0.216541	0.218642	0.349519	
13000	-194485.261	61.086	0.220792	0.212148	0.222848	0.344212	
14000	-189425.195	57.640	0.215298	0.216541	0.218642	0.349519	
15000	-183980.778	55.064	0.215298	0.216541	0.218642	0.349519	
16000	-179501.167	52.672	0.215298	0.216541	0.218642	0.349519	
17000	-175255.929	50.661	0.215298	0.216541	0.218642	0.349519	
18000	-170722.141	48.711	0.215298	0.216541	0.218642	0.349519	
19000	-166889.105	47.260	0.210873	0.223653	0.219882	0.345592	
20000	-163253.282	45.542	0.210873	0.223653	0.219882	0.345592	
21000	-158912.164	43.991	0.210873	0.223653	0.219882	0.345592	
22000	-155750.011	42.250	0.210873	0.223653	0.219882	0.345592	
23000	-153298.143	41.425	0.210873	0.223653	0.219882	0.345592	
24000	-150240.812	40.129	0.211201	0.218497	0.225452	0.344850	
25000	-147856.149	38.702	0.211201	0.218497	0.225452	0.344850	
26000	-144992.931	37.486	0.211201	0.218497	0.225452	0.344850	
27000	-142290.533	36.277	0.211201	0.218497	0.225452	0.344850	
28000	-140140.674	35.364	0.211201	0.218497	0.225452	0.344850	
29000	-138374.501	34.537	0.211201	0.218497	0.225452	0.344850	
30000	-136925.737	33.577	0.211201	0.218497	0.225452	0.344850	
31000	-135529.008	32.691	0.211201	0.218497	0.225452	0.344850	
32000	-133745.404	31.804	0.207708	0.228651	0.221038	0.342604	
33000	-132286.952	31.220	0.205442	0.229419	0.225637	0.339501	
34000	-131075.444	30.422	0.205442	0.229419	0.225637	0.339501	
35000	-129074.561	31.143	0.200372	0.230900	0.228864	0.339863	
36000	-126671.567	30.268	0.200372	0.230900	0.228864	0.339863	
37000	-124715.732	29.264	0.200372	0.230900	0.228864	0.339863	
38000	-122702.737	28.359	0.200372	0.230900	0.228864	0.339863	
39000	-120778.713	27.573	0.200372	0.230900	0.228864	0.339863	
40000	-118745.907	27.080	0.200372	0.230900	0.228864	0.339863	
41000	-117332.426	26.103	0.200372	0.230900	0.228864	0.339863	
42000	-115456.115	25.472	0.202987	0.229940	0.226636	0.340437	
43000	-113601.879	24.971	0.205657	0.229407	0.228314	0.336622	
44000	-112259.046	24.363	0.205657	0.229407	0.228314	0.336622	
45000	-111069.660	24.057	0.205657	0.229407	0.228314	0.336622	
46000	-110065.810	23.448	0.205657	0.229407	0.228314	0.336622	
47000	-108570.606	23.145	0.205657	0.229407	0.228314	0.336622	
48000	-107449.363	22.704	0.206446	0.229939	0.222855	0.340760	
49000	-106176.981	22.218	0.206446	0.229939	0.222855	0.340760	
50000	-105212.669	22.096	0.206446	0.229939	0.222855	0.340760	
51000	-104393.636	22.051	0.206446	0.229939	0.222855	0.340760	
52000	-102903.269	21.419	0.206446	0.229939	0.222855	0.340760	
53000	-101439.673	21.014	0.206446	0.229939	0.222855	0.340760	
54000	-99792.806	20.684	0.206446	0.229939	0.222855	0.340760	
55000	-98657.195	20.264	0.206446	0.229939	0.222855	0.340760	
56000	-98167.915	19.953	0.206446	0.229939	0.222855	0.340760	
57000	-97326.135	19.806	0.206446	0.229939	0.222855	0.340760	
58000	-96475.961	19.696	0.206446	0.229939	0.222855	0.340760	
59000	-95836.496	19.435	0.209581	0.229813	0.214105	0.346501	
60000	-95491.298	19.234	0.209581	0.229813	0.214105	0.346501	
61000	-94934.401	18.907	0.209581	0.229813	0.214105	0.346501	
62000	-94240.844	18.643	0.211541	0.233744	0.223565	0.331151	
63000	-93851.878	18.315	0.211541	0.233744	0.223565	0.331151	
64000	-93407.464	18.084	0.211541	0.233744	0.223565	0.331151	
65000	-93082.360	17.938	0.211541	0.233744	0.223565	0.331151	
66000	-92803.783	17.878	0.205916	0.230853	0.230712	0.332519	
67000	-92087.429	17.720	0.205916	0.230853	0.230712	0.332519	
68000	-91894.559	17.546	0.205916	0.230853	0.230712	0.332519	
69000	-91563.047	17.312	0.205916	0.230853	0.230712	0.332519	
70000	-91367.363	17.037	0.205916	0.230853	0.230712	0.332519	
71000	-91100.659	16.892	0.199675	0.231408	0.234442	0.334476	
72000	-90691.514	16.759	0.199675	0.231408	0.234442	0.334476	
73000	-90560.375	16.660	0.207755	0.237120	0.227512	0.327613	
74000	-90274.287	16.446	0.200639	0.246643	0.227616	0.325102	
75000	-89697.922	16.520	0.200639	0.246643	0.227616	0.325102	
76000	-89590.729	16.336	0.204351	0.237147	0.234599	0.323903	
77000	-89399.118	16.247	0.202218	0.237301	0.234641	0.325840	
78000	-89252.051	16.243	0.200285	0.246034	0.228989	0.324692	
79000	-89134.219	16.141	0.204744	0.240803	0.235139	0.319314	
80000	-88771.082	16.194	0.205028	0.246521	0.230394	0.318057	
81000	-88587.301	16.034	0.199964	0.245158	0.220392	0.334486	
82000	-88488.958	15.876	0.199964	0.245158	0.220392	0.334486	
83000	-88412.928	15.833	0.199964	0.245158	0.220392	0.334486	
84000	-88331.257	15.831	0.201173	0.237729	0.228139	0.332959	
85000	-88248.594	15.731	0.207877	0.238043	0.227998	0.326082	
86000	-88204.256	15.668	0.208041	0.241504	0.217396	0.333058	
87000	-88078.423	15.561	0.207731	0.239005	0.218943	0.334320	
88000	-87885.681	15.506	0.207731	0.239005	0.218943	0.334320	
89000	-87789.303	15.454	0.208080	0.244219	0.228965	0.318736	
90000	-87426.643	15.529	0.205109	0.241899	0.225623	0.327369	
91000	-87322.650	15.421	0.205109	0.241899	0.225623	0.327369	
92000	-87239.146	15.293	0.205109	0.241899	0.225623	0.327369	
93000	-87176.985	15.236	0.205109	0.241899	0.225623	0.327369	
94000	-87079.300	15.193	0.205109	0.241899	0.225623	0.327369	
95000	-87026.325	15.243	0.205109	0.241899	0.225623	0.327369	
96000	-86946.305	15.323	0.205109	0.241899	0.225623	0.327369	
97000	-86897.203	15.299	0.205109	0.241899	0.225623	0.327369	
98000	-86764.153	15.220	0.205109	0.241899	0.225623	0.327369	
99000	-86561.595	15.187	0.204155	0.236377	0.226289	0.333179	
100000	-86477.582	15.128	0.204155	0.236377	0.226289	0.333179	
101000	-86230.011	15.085	0.204155	0.236377	0.226289	0.333179	
102000	-86146.660	15.006	0.204155	0.236377	0.226289	0.333179	
103000	-86067.807	15.006	0.204155	0.236377	0.226289	0.333179	
104000	-85874.941	15.026	0.204155	0.236377	0.226289	0.333179	
105000	-85775.713	14.892	0.204155	0.236377	0.226289	0.333179	
106000	-85680.392	14.819	0.204155	0.236377	0.226289	0.333179	
107000	-85635.140	14.798	0.206226	0.236995	0.225309	0.331470	
108000	-85603.663	14.759	0.206226	0.236995	0.225309	0.331470	
109000	-85577.858	14.725	0.203995	0.242121	0.228975	0.324909	
110000	-85534.224	14.618	0.203995	0.242121	0.228975	0.324909	
111000	-85419.777	14.568	0.203995	0.242121	0.228975	0.324909	
112000	-85356.060	14.422	0.203995	0.242121	0.228975	0.324909	
113000	-85084.654	14.629	0.203995	0.242121	0.228975	0.324909	
114000	-85072.438	14.631	0.203995	0.242121	0.228975	0.324909	
115000	-85038.949	14.559	0.203995	0.242121	0.228975	0.324909	
116000	-84925.817	14.538	0.209326	0.239949	0.222353	0.328372	
117000	-84912.129	14.576	0.209326	0.239949	0.222353	0.328372	
118000	-84713.840	14.623	0.209392	0.242338	0.226755	0.321515	
119000	-84636.502	14.573	0.209392	0.242338	0.226755	0.321515	
120000	-84549.808	14.447	0.209392	0.242338	0.226755	0.321515	
121000	-84362.209	14.502	0.209392	0.242338	0.226755	0.321515	
122000	-84077.574	14.530	0.209392	0.242338	0.226755	0.321515	
123000	-83953.186	14.483	0.208816	0.232728	0.234012	0.324445	
124000	-83817.610	14.493	0.208816	0.232728	0.234012	0.324445	
125000	-83357.683	14.470	0.205703	0.240533	0.233481	0.320282	
126000	-82798.239	14.440	0.205703	0.240533	0.233481	0.320282	
127000	-82610.250	14.368	0.205703	0.240533	0.233481	0.320282	
128000	-82529.218	14.265	0.205703	0.240533	0.233481	0.320282	
129000	-82399.782	14.208	0.206909	0.241629	0.233213	0.318249	
130000	-82364.024	14.135	0.206909	0.241629	0.233213	0.318249	
131000	-82229.008	14.112	0.206909	0.241629	0.233213	0.318249	
132000	-82081.599	14.051	0.206909	0.241629	0.233213	0.318249	
133000	-81881.970	13.967	0.206909	0.241629	0.233213	0.318249	
134000	-81839.086	13.967	0.206909	0.241629	0.233213	0.318249	
135000	-81762.972	13.982	0.206909	0.241629	0.233213	0.318249	
136000	-81678.398	13.949	0.216284	0.237426	0.231170	0.315120	
137000	-81612.866	14.032	0.216284	0.237426	0.231170	0.315120	
138000	-81548.314	14.042	0.216284	0.237426	0.231170	0.315120	
139000	-81424.664	14.074	0.216284	0.237426	0.231170	0.315120	
140000	-81382.451	14.043	0.216284	0.237426	0.231170	0.315120	
141000	-81346.077	14.116	0.216284	0.237426	0.231170	0.315120	
142000	-81271.656	13.944	0.216284	0.237426	0.231170	0.315120	
143000	-81236.472	13.899	0.198259	0.247191	0.236950	0.317600	
144000	-81144.868	13.988	0.201120	0.244072	0.233844	0.320964	
145000	-81103.891	13.896	0.201861	0.241218	0.229814	0.327106	
146000	-81023.236	13.763	0.207492	0.245032	0.236348	0.311129	
147000	-80904.950	13.738	0.207492	0.245032	0.236348	0.311129	
148000	-80871.075	13.793	0.207834	0.243989	0.230979	0.317198	
149000	-80817.488	13.686	0.206977	0.239040	0.229780	0.324203	
150000	-80627.760	13.732	0.206977	0.239040	0.229780	0.324203	
151000	-80560.619	13.632	0.206977	0.239040	0.229780	0.324203	
152000	-80566.245	13.663	0.206977	0.239040	0.229780	0.324203	
153000	-80564.290	13.663	0.206977	0.239040	0.229780	0.324203	
154000	-80556.689	13.632	0.210412	0.237657	0.230155	0.321776	
155000	-80522.351	13.589	0.210412	0.237657	0.230155	0.321776	
156000	-80492.885	13.544	0.210412	0.237657	0.230155	0.321776	
157000	-80466.517	13.499	0.210412	0.237657	0.230155	0.321776	
158000	-80439.864	13.516	0.211164	0.238036	0.224863	0.325938	
159000	-80413.690	13.563	0.211164	0.238036	0.224863	0.325938	
160000	-80407.288	13.465	0.211164	0.238036	0.224863	0.325938	
161000	-80374.176	13.472	0.211164	0.238036	0.224863	0.325938	
162000	-80345.204	13.486	0.211164	0.238036	0.224863	0.325938	
163000	-80266.990	13.455	0.211164	0.238036	0.224863	0.325938	
164000	-80199.665	13.466	0.211164	0.238036	0.224863	0.325938	
165000	-80190.742	13.472	0.211164	0.238036	0.224863	0.325938	
166000	-80151.134	13.410	0.214560	0.239193	0.230919	0.315328	
167000	-79932.426	13.476	0.214560	0.239193	0.230919	0.315328	
168000	-79695.177	13.527	0.214560	0.239193	0.230919	0.315328	
169000	-79597.723	13.535	0.207609	0.240290	0.234795	0.317306	
170000	-79183.693	13.509	0.209993	0.244582	0.225553	0.319872	
171000	-78947.332	13.496	0.209993	0.244582	0.225553	0.319872	
172000	-78857.441	13.389	0.205685	0.243743	0.235433	0.315139	
173000	-78842.341	13.341	0.208452	0.245922	0.231281	0.314344	
174000	-78806.938	13.349	0.208452	0.245922	0.231281	0.314344	
175000	-78730.123	13.283	0.208452	0.245922	0.231281	0.314344	
176000	-78645.150	13.237	0.205593	0.237949	0.236099	0.320359	
177000	-78606.733	13.191	0.205593	0.237949	0.236099	0.320359	
178000	-78564.029	13.229	0.205593	0.237949	0.236099	0.320359	
179000	-78527.672	13.253	0.205593	0.237949	0.236099	0.320359	
180000	-78483.556	13.240	0.211072	0.237148	0.235602	0.316178	
181000	-78475.761	13.114	0.211072	0.237148	0.235602	0.316178	
182000	-78471.062	13.083	0.207677	0.250831	0.236235	0.305258	
183000	-78451.826	13.129	0.202512	0.243509	0.236613	0.317366	
184000	-78441.537	13.129	0.202512	0.243509	0.236613	0.317366	
185000	-78324.243	13.036	0.212064	0.245367	0.229058	0.313510	
186000	-78314.403	13.014	0.212064	0.245367	0.229058	0.313510	
187000	-78299.178	13.062	0.209948	0.245446	0.229930	0.314676	
188000	-78278.691	13.050	0.209948	0.245446	0.229930	0.314676	
189000	-78247.140	13.062	0.209948	0.245446	0.229930	0.314676	
190000	-78241.675	13.081	0.209948	0.245446	0.229930	0.314676	
191000	-78227.000	12.983	0.209948	0.245446	0.229930	0.314676	
192000	-78227.600	12.932	0.209948	0.245446	0.229930	0.314676	
193000	-78224.961	12.967	0.209948	0.245446	0.229930	0.314676	
194000	-78198.559	12.931	0.209948	0.245446	0.229930	0.314676	
195000	-78170.637	12.930	0.209948	0.245446	0.229930	0.314676	
196000	-78167.311	13.011	0.210772	0.235618	0.232714	0.320896	
197000	-78161.005	13.004	0.210772	0.235618	0.232714	0.320896	
198000	-78157.761	13.090	0.210772	0.235618	0.232714	0.320896	
199000	-78167.084	13.112	0.210772	0.235618	0.232714	0.320896	
200000	-78165.305	13.134	0.213069	0.245130	0.223615	0.318186	
201000	-78150.276	13.145	0.218461	0.238616	0.237308	0.305615	
202000	-78153.080	13.079	0.210268	0.242026	0.241951	0.305754	
203000	-78126.660	13.053	0.206676	0.243475	0.227980	0.321870	
204000	-78114.210	12.994	0.206676	0.243475	0.227980	0.321870	
205000	-78123.590	13.022	0.206676	0.243475	0.227980	0.321870	
206000	-78129.775	13.060	0.206676	0.243475	0.227980	0.321870	
207000	-78084.848	12.958	0.206676	0.243475	0.227980	0.321870	
208000	-78101.520	12.934	0.209526	0.242540	0.227322	0.320612	
209000	-78089.344	12.952	0.205125	0.243488	0.232612	0.318775	
210000	-78099.311	13.124	0.212474	0.242786	0.235983	0.308757	
211000	-78079.495	13.052	0.212474	0.242786	0.235983	0.308757	
212000	-78075.217	13.072	0.213385	0.241026	0.237694	0.307895	
213000	-78073.327	13.048	0.213385	0.241026	0.237694	0.307895	
214000	-78079.744	12.981	0.213385	0.241026	0.237694	0.307895	
215000	-78004.349	13.330	0.212779	0.248334	0.238300	0.300587	
216000	-77710.495	13.238	0.212779	0.248334	0.238300	0.300587	
217000	-77580.909	13.273	0.212779	0.248334	0.238300	0.300587	
218000	-77362.630	13.176	0.224774	0.234859	0.232585	0.307782	
219000	-77152.044	13.063	0.224774	0.234859	0.232585	0.307782	
220000	-76566.096	13.059	0.224774	0.234859	0.232585	0.307782	
221000	-76028.622	13.065	0.210944	0.245993	0.238663	0.304400	
222000	-75734.540	13.138	0.210944	0.245993	0.238663	0.304400	
223000	-75388.619	13.091	0.211761	0.234922	0.228051	0.325266	
224000	-75056.857	13.094	0.217696	0.243280	0.232111	0.306913	
225000	-74697.668	13.061	0.215055	0.232144	0.236152	0.316648	
226000	-74202.134	12.868	0.221660	0.245059	0.221720	0.311561	
227000	-73947.222	12.807	0.211971	0.235515	0.226165	0.326349	
228000	-73834.024	12.598	0.213969	0.235758	0.231358	0.318915	
229000	-73648.948	12.459	0.213969	0.235758	0.231358	0.318915	
230000	-73464.837	12.440	0.213969	0.235758	0.231358	0.318915	
231000	-73143.000	13.122	0.202648	0.234825	0.230040	0.332487	
232000	-72843.350	13.043	0.203814	0.236274	0.237102	0.322810	
233000	-72469.687	12.862	0.212191	0.246146	0.231645	0.310017	
234000	-72015.828	12.795	0.208144	0.238169	0.238806	0.314881	
235000	-71553.649	12.688	0.208488	0.238330	0.239931	0.313251	
236000	-71135.956	12.609	0.208488	0.238330	0.239931	0.313251	
237000	-70826.864	12.480	0.208488	0.238330	0.239931	0.313251	
238000	-70512.245	12.396	0.208488	0.238330	0.239931	0.313251	
239000	-70296.722	12.263	0.208488	0.238330	0.239931	0.313251	
240000	-70161.410	12.277	0.208488	0.238330	0.239931	0.313251	
241000	-70035.003	12.252	0.208488	0.238330	0.239931	0.313251	
242000	-69874.980	12.147	0.217226	0.244203	0.231938	0.306633	
243000	-69710.983	12.050	0.217226	0.244203	0.231938	0.306633	
244000	-69625.283	12.047	0.215828	0.245369	0.231623	0.307180	
245000	-69501.828	11.982	0.215828	0.245369	0.231623	0.307180	
246000	-69358.036	11.912	0.215182	0.240118	0.231940	0.312761	
247000	-69135.650	11.891	0.213836	0.247349	0.233689	0.305126	
248000	-69083.534	11.877	0.213836	0.247349	0.233689	0.305126	
249000	-68916.529	11.664	0.216700	0.239029	0.238739	0.305532	
250000	-68866.493	11.554	0.213256	0.249572	0.236375	0.300798	
251000	-68804.655	11.567	0.208380	0.250902	0.234610	0.306108	
252000	-68729.940	11.429	0.209492	0.243106	0.239426	0.307975	
253000	-68691.196	11.562	0.217320	0.241257	0.234228	0.307195	
254000	-68657.416	11.552	0.217320	0.241257	0.234228	0.307195	
255000	-68590.097	11.577	0.214482	0.247394	0.235294	0.302829	
256000	-68494.929	11.613	0.214482	0.247394	0.235294	0.302829	
257000	-68433.891	11.486	0.214482	0.247394	0.235294	0.302829	
258000	-68391.855	11.499	0.214482	0.247394	0.235294	0.302829	
259000	-68340.866	11.402	0.210537	0.241391	0.231735	0.316337	
260000	-68284.544	11.438	0.210537	0.241391	0.231735	0.316337	
261000	-68209.687	11.372	0.211179	0.250160	0.233554	0.305106	
262000	-68188.133	11.370	0.211179	0.250160	0.233554	0.305106	
263000	-68191.839	11.402	0.210704	0.246350	0.238473	0.304473	
264000	-68164.305	11.326	0.211555	0.247465	0.234218	0.306763	
265000	-67959.992	11.272	0.211555	0.247465	0.234218	0.306763	
266000	-67939.142	11.184	0.211555	0.247465	0.234218	0.306763	
267000	-67841.937	11.170	0.208405	0.243160	0.236657	0.311779	
268000	-67793.865	11.243	0.212059	0.251748	0.233443	0.302750	
269000	-67664.156	11.286	0.216688	0.246781	0.239366	0.297165	
270000	-67587.692	11.152	0.216688	0.246781	0.239366	0.297165	
271000	-67368.417	11.143	0.216688	0.246781	0.239366	0.297165	
272000	-67256.111	11.122	0.206695	0.243402	0.238809	0.311094	
273000	-67225.496	11.059	0.207472	0.245913	0.231255	0.315360	
274000	-67145.869	10.991	0.205655	0.253934	0.241637	0.298775	
275000	-67114.826	10.968	0.203094	0.253151	0.233325	0.310429	
276000	-66902.408	10.866	0.218650	0.248314	0.230623	0.302413	
277000	-66524.632	10.797	0.204609	0.244217	0.235422	0.315752	
278000	-66415.875	10.727	0.210202	0.240457	0.243422	0.305919	
279000	-66373.468	10.772	0.215183	0.244600	0.233932	0.306285	
280000	-66389.808	10.773	0.208084	0.247756	0.234347	0.309813	
281000	-66377.926	10.735	0.208084	0.247756	0.234347	0.309813	
282000	-66339.478	10.651	0.208084	0.247756	0.234347	0.309813	
283000	-66340.184	10.793	0.209970	0.252824	0.242863	0.294342	
284000	-66312.702	10.719	0.209970	0.252824	0.242863	0.294342	
285000	-66291.202	10.733	0.208061	0.241177	0.239772	0.310990	
286000	-66270.856	10.620	0.208061	0.241177	0.239772	0.310990	
287000	-66275.096	10.604	0.207857	0.251449	0.245616	0.295078	
288000	-66255.147	10.737	0.207857	0.251449	0.245616	0.295078	
289000	-66248.630	10.697	0.207857	0.251449	0.245616	0.295078	
290000	-66231.146	10.688	0.206599	0.252485	0.243288	0.297628	
291000	-66221.612	10.643	0.206599	0.252485	0.243288	0.297628	
292000	-66205.586	10.677	0.205106	0.247377	0.240936	0.306580	
293000	-66197.105	10.689	0.205106	0.247377	0.240936	0.306580	
294000	-66212.520	10.633	0.198223	0.252578	0.235271	0.313927	
295000	-66201.329	10.622	0.210233	0.249011	0.238611	0.302145	
296000	-66200.981	10.663	0.210233	0.249011	0.238611	0.302145	
297000	-66228.644	10.658	0.210233	0.249011	0.238611	0.302145	
298000	-66239.258	10.694	0.218443	0.246302	0.235505	0.299750	
299000	-66245.008	10.644	0.218443	0.246302	0.235505	0.299750	
300000	-66245.044	10.659	0.218443	0.246302	0.235505	0.299750	
301000	-66255.342	10.598	0.213538	0.253229	0.240853	0.292379	
302000	-66256.262	10.566	0.213538	0.253229	0.240853	0.292379	
303000	-66259.437	10.583	0.213538	0.253229	0.240853	0.292379	
304000	-66242.521	10.540	0.210089	0.241690	0.243066	0.305155	
305000	-66205.392	10.458	0.210089	0.241690	0.243066	0.305155	
306000	-66191.349	10.385	0.210089	0.241690	0.243066	0.305155	
307000	-66181.286	10.402	0.205717	0.259270	0.241968	0.293045	
308000	-66155.749	10.438	0.205717	0.259270	0.241968	0.293045	
309000	-66154.515	10.349	0.205717	0.259270	0.241968	0.293045	
310000	-66145.464	10.361	0.209121	0.243671	0.243716	0.303492	
311000	-66133.618	10.381	0.204384	0.245110	0.238248	0.312258	
312000	-66133.080	10.402	0.214708	0.244278	0.238085	0.302929	
313000	-66121.141	10.482	0.214147	0.249292	0.234254	0.302307	
314000	-66139.288	10.496	0.214147	0.249292	0.234254	0.302307	
315000	-66125.735	10.508	0.214147	0.249292	0.234254	0.302307	
316000	-66134.865	10.585	0.207209	0.253622	0.233920	0.305249	
317000	-66146.648	10.539	0.207209	0.253622	0.233920	0.305249	
318000	-65997.711	10.522	0.207209	0.253622	0.233920	0.305249	
319000	-65813.301	10.553	0.207209	0.253622	0.233920	0.305249	
320000	-65716.263	10.578	0.207209	0.253622	0.233920	0.305249	
321000	-65626.623	10.599	0.207209	0.253622	0.233920	0.305249	
322000	-65174.489	10.703	0.218862	0.246905	0.231689	0.302544	
323000	-64972.339	10.730	0.207398	0.247939	0.235844	0.308819	
324000	-64874.533	10.805	0.205487	0.247350	0.240255	0.306908	
325000	-64734.572	10.855	0.205487	0.247350	0.240255	0.306908	
326000	-64709.273	10.805	0.205487	0.247350	0.240255	0.306908	
327000	-64503.363	10.777	0.205487	0.247350	0.240255	0.306908	
328000	-64182.387	10.757	0.208020	0.255324	0.239557	0.297099	
329000	-64070.599	10.723	0.208020	0.255324	0.239557	0.297099	
330000	-64015.966	10.637	0.208020	0.255324	0.239557	0.297099	
331000	-63973.442	10.537	0.208020	0.255324	0.239557	0.297099	
332000	-63966.773	10.571	0.208020	0.255324	0.239557	0.297099	
333000	-63928.682	10.477	0.213779	0.244584	0.236127	0.305510	
334000	-63892.694	10.494	0.208477	0.250770	0.237725	0.303028	
335000	-63876.332	10.437	0.208477	0.250770	0.237725	0.303028	
336000	-63860.291	10.437	0.208477	0.250770	0.237725	0.303028	
337000	-63843.077	10.397	0.208477	0.250770	0.237725	0.303028	
338000	-63824.204	10.343	0.208477	0.250770	0.237725	0.303028	
339000	-63790.235	10.281	0.215916	0.246901	0.233399	0.303783	
340000	-63774.270	10.261	0.212745	0.250237	0.239479	0.297539	
341000	-63741.193	10.306	0.209793	0.250956	0.242290	0.296962	
342000	-63737.818	10.234	0.209793	0.250956	0.242290	0.296962	
343000	-63694.945	10.190	0.209793	0.250956	0.242290	0.296962	
344000	-63716.120	10.210	0.209793	0.250956	0.242290	0.296962	
345000	-63711.810	10.189	0.209793	0.250956	0.242290	0.296962	
346000	-63705.321	10.102	0.209793	0.250956	0.242290	0.296962	
347000	-63695.335	10.065	0.209793	0.250956	0.242290	0.296962	
348000	-63711.394	10.049	0.209793	0.250956	0.242290	0.296962	
349000	-63701.960	10.065	0.209793	0.250956	0.242290	0.296962	
350000	-63667.705	10.132	0.209793	0.250956	0.242290	0.296962	
351000	-63642.953	10.120	0.209793	0.250956	0.242290	0.296962	
352000	-63638.042	10.131	0.209793	0.250956	0.242290	0.296962	
353000	-63621.998	10.119	0.209793	0.250956	0.242290	0.296962	
354000	-63624.311	10.130	0.209793	0.250956	0.242290	0.296962	
355000	-63611.733	10.075	0.213595	0.250918	0.232810	0.302677	
356000	-63593.501	10.046	0.213595	0.250918	0.232810	0.302677	
357000	-63598.906	10.045	0.213595	0.250918	0.232810	0.302677	
358000	-63598.138	10.185	0.213595	0.250918	0.232810	0.302677	
359000	-63580.466	10.137	0.213595	0.250918	0.232810	0.302677	
360000	-63557.556	10.121	0.206169	0.247833	0.236324	0.309673	
361000	-63565.843	10.259	0.215646	0.243461	0.236379	0.304514	
362000	-63557.750	10.256	0.215646	0.243461	0.236379	0.304514	
363000	-63545.035	10.296	0.215646	0.243461	0.236379	0.304514	
364000	-63529.745	10.252	0.215646	0.243461	0.236379	0.304514	
365000	-63522.046	10.177	0.215646	0.243461	0.236379	0.304514	
366000	-63531.908	10.209	0.215646	0.243461	0.236379	0.304514	
367000	-63525.424	10.178	0.215646	0.243461	0.236379	0.304514	
368000	-63534.109	10.229	0.214606	0.247340	0.239974	0.298080	
369000	-63519.629	10.234	0.216019	0.254873	0.234355	0.294752	
370000	-63518.398	10.200	0.216019	0.254873	0.234355	0.294752	
371000	-63534.687	10.228	0.215407	0.250173	0.241357	0.293064	
372000	-63496.806	10.211	0.210369	0.246812	0.238931	0.303889	
373000	-63506.735	10.261	0.209139	0.256086	0.235006	0.299769	
374000	-63497.361	10.235	0.209139	0.256086	0.235006	0.299769	
375000	-63498.132	10.267	0.213552	0.243300	0.233953	0.309195	
376000	-63502.448	10.281	0.209937	0.249823	0.236517	0.303723	
377000	-63498.868	10.340	0.209937	0.249823	0.236517	0.303723	
378000	-63501.762	10.327	0.211299	0.250739	0.238490	0.299472	
379000	-63477.311	10.371	0.211299	0.250739	0.238490	0.299472	
380000	-63475.071	10.395	0.211299	0.250739	0.238490	0.299472	
381000	-63486.181	10.399	0.211299	0.250739	0.238490	0.299472	
382000	-63468.982	10.391	0.211299	0.250739	0.238490	0.299472	
383000	-63466.010	10.348	0.211299	0.250739	0.238490	0.299472	
384000	-63451.503	10.313	0.211299	0.250739	0.238490	0.299472	
385000	-63440.958	10.321	0.211299	0.250739	0.238490	0.299472	
386000	-63464.430	10.262	0.211299	0.250739	0.238490	0.299472	
387000	-63448.866	10.203	0.211299	0.250739	0.238490	0.299472	
388000	-63428.929	10.129	0.211299	0.250739	0.238490	0.299472	
389000	-63437.558	10.095	0.211299	0.250739	0.238490	0.299472	
390000	-63452.445	10.161	0.211299	0.250739	0.238490	0.299472	
391000	-63442.225	10.129	0.211299	0.250739	0.238490	0.299472	
392000	-63457.012	10.187	0.211299	0.250739	0.238490	0.299472	
393000	-63453.997	10.191	0.211299	0.250739	0.238490	0.299472	
394000	-63434.660	10.146	0.211299	0.250739	0.238490	0.299472	
395000	-63446.177	10.122	0.211299	0.250739	0.238490	0.299472	
396000	-63447.687	10.123	0.211299	0.250739	0.238490	0.299472	
397000	-63457.257	10.125	0.211299	0.250739	0.238490	0.299472	
398000	-63464.695	10.138	0.211299	0.250739	0.238490	0.299472	
399000	-63478.595	10.171	0.214938	0.250978	0.237681	0.296403	
400000	-63488.781	10.215	0.214938	0.250978	0.237681	0.296403	
401000	-63489.501	10.216	0.214938	0.250978	0.237681	0.296403	
402000	-63467.746	10.179	0.210866	0.253312	0.235361	0.300462	
403000	-63500.264	10.179	0.214035	0.243239	0.233149	0.309576	
404000	-63498.971	10.275	0.215009	0.250428	0.232834	0.301729	
405000	-63489.503	10.276	0.215009	0.250428	0.232834	0.301729	
406000	-63504.794	10.319	0.215009	0.250428	0.232834	0.301729	
407000	-63495.944	10.334	0.211962	0.245672	0.236198	0.306168	
408000	-63481.357	10.377	0.211962	0.245672	0.236198	0.306168	
409000	-63504.784	10.379	0.206926	0.250060	0.235895	0.307119	
410000	-63508.130	10.351	0.206926	0.250060	0.235895	0.307119	
411000	-63504.464	10.392	0.215502	0.256425	0.231298	0.296776	
412000	-63501.950	10.353	0.215502	0.256425	0.231298	0.296776	
413000	-63497.525	10.323	0.211320	0.247855	0.238213	0.302613	
414000	-63517.320	10.385	0.211320	0.247855	0.238213	0.302613	
415000	-63505.670	10.315	0.211320	0.247855	0.238213	0.302613	
416000	-63498.713	10.263	0.211320	0.247855	0.238213	0.302613	
417000	-63437.715	10.226	0.211320	0.247855	0.238213	0.302613	
418000	-63437.444	10.237	0.211320	0.247855	0.238213	0.302613	
419000	-63429.703	10.257	0.211320	0.247855	0.238213	0.302613	
420000	-63422.034	10.338	0.216423	0.246514	0.238317	0.298747	
421000	-63394.894	10.221	0.213211	0.245271	0.237761	0.303757	
422000	-63383.691	10.205	0.214359	0.245852	0.235356	0.304433	
423000	-63391.255	10.198	0.214359	0.245852	0.235356	0.304433	
424000	-63384.064	10.152	0.214359	0.245852	0.235356	0.304433	
425000	-63405.440	10.195	0.212274	0.251657	0.241116	0.294952	
426000	-63388.088	10.148	0.212274	0.251657	0.241116	0.294952	
427000	-63366.310	10.112	0.212274	0.251657	0.241116	0.294952	
428000	-63360.216	10.067	0.212274	0.251657	0.241116	0.294952	
429000	-63362.105	10.068	0.212274	0.251657	0.241116	0.294952	
430000	-63349.347	10.120	0.212274	0.251657	0.241116	0.294952	
431000	-63348.140	10.091	0.212274	0.251657	0.241116	0.294952	
432000	-63358.434	10.093	0.212274	0.251657	0.241116	0.294952	
433000	-63353.776	10.092	0.211966	0.253514	0.243919	0.290602	
434000	-63365.573	10.183	0.209180	0.255408	0.239105	0.296307	
435000	-63379.376	10.101	0.209180	0.255408	0.239105	0.296307	
436000	-63373.315	10.043	0.209180	0.255408	0.239105	0.296307	
437000	-63346.946	10.483	0.212123	0.239570	0.236453	0.311854	
438000	-63333.910	10.543	0.212123	0.239570	0.236453	0.311854	
439000	-63283.635	10.482	0.214861	0.240610	0.235040	0.309488	
440000	-63243.256	10.469	0.213098	0.238544	0.234753	0.313605	
441000	-63200.741	10.517	0.213098	0.238544	0.234753	0.313605	
442000	-63188.914	10.462	0.213098	0.238544	0.234753	0.313605	
443000	-63178.290	10.413	0.213098	0.238544	0.234753	0.313605	
444000	-63155.818	10.432	0.215774	0.242620	0.231774	0.309832	
445000	-63143.498	10.331	0.215774	0.242620	0.231774	0.309832	
446000	-63087.532	10.294	0.210694	0.251821	0.233270	0.304215	
447000	-63044.798	10.323	0.210694	0.251821	0.233270	0.304215	
448000	-63013.152	10.269	0.217848	0.240790	0.229033	0.312329	
449000	-63015.310	10.309	0.217848	0.240790	0.229033	0.312329	
450000	-62988.054	10.240	0.217848	0.240790	0.229033	0.312329	
451000	-62971.915	10.249	0.222049	0.242190	0.234726	0.301034	
452000	-62936.664	10.323	0.220233	0.237255	0.231554	0.310958	
453000	-62936.139	10.266	0.220482	0.246805	0.232337	0.300376	
454000	-62895.699	10.184	0.220482	0.246805	0.232337	0.300376	
455000	-62899.140	10.268	0.220482	0.246805	0.232337	0.300376	
456000	-62881.599	10.179	0.220482	0.246805	0.232337	0.300376	
457000	-62878.399	10.172	0.213920	0.249410	0.237921	0.298748	
458000	-62889.027	10.150	0.216485	0.244440	0.236756	0.302319	
459000	-62878.357	10.188	0.216485	0.244440	0.236756	0.302319	
460000	-62844.579	10.171	0.216485	0.244440	0.236756	0.302319	
461000	-62843.649	10.190	0.216485	0.244440	0.236756	0.302319	
462000	-62858.238	10.117	0.216485	0.244440	0.236756	0.302319	
463000	-62836.300	10.113	0.216485	0.244440	0.236756	0.302319	
464000	-62839.596	10.180	0.213246	0.238754	0.235688	0.312312	
465000	-62801.173	10.188	0.213246	0.238754	0.235688	0.312312	
466000	-62782.114	10.274	0.213246	0.238754	0.235688	0.312312	
467000	-62773.932	10.260	0.213246	0.238754	0.235688	0.312312	
468000	-62727.738	10.210	0.219126	0.236834	0.237343	0.306698	
469000	-62269.409	10.192	0.211258	0.246116	0.243683	0.298942	
470000	-62141.930	10.130	0.222510	0.251555	0.230963	0.294972	
471000	-62001.341	10.107	0.213483	0.246143	0.240656	0.299719	
472000	-61957.289	10.107	0.213483	0.246143	0.240656	0.299719	
473000	-61664.285	10.092	0.213483	0.246143	0.240656	0.299719	
474000	-61587.542	10.122	0.213483	0.246143	0.240656	0.299719	
475000	-61410.561	10.074	0.218092	0.241033	0.230128	0.310747	
476000	-61311.876	10.007	0.218092	0.241033	0.230128	0.310747	
477000	-61250.229	9.957	0.218092	0.241033	0.230128	0.310747	
478000	-61084.235	9.954	0.218092	0.241033	0.230128	0.310747	
479000	-60962.967	9.990	0.218092	0.241033	0.230128	0.310747	
480000	-60559.591	9.992	0.218092	0.241033	0.230128	0.310747	
481000	-60401.426	10.185	0.220094	0.239379	0.233256	0.307271	
482000	-60175.746	9.999	0.220094	0.239379	0.233256	0.307271	
483000	-60049.894	9.965	0.220094	0.239379	0.233256	0.307271	
484000	-59879.891	9.892	0.219253	0.242080	0.234099	0.304568	
485000	-59161.150	9.939	0.221673	0.243498	0.233152	0.301676	
486000	-58735.373	9.887	0.221373	0.242307	0.229303	0.307017	
487000	-58657.624	9.908	0.221373	0.242307	0.229303	0.307017	
488000	-58517.809	9.772	0.221373	0.242307	0.229303	0.307017	
489000	-58174.288	9.883	0.221373	0.242307	0.229303	0.307017	
490000	-57989.585	9.774	0.221373	0.242307	0.229303	0.307017	
491000	-57783.083	9.738	0.221373	0.242307	0.229303	0.307017	
492000	-57442.990	9.684	0.221373	0.242307	0.229303	0.307017	
493000	-57246.321	9.657	0.221373	0.242307	0.229303	0.307017	
494000	-57106.234	9.630	0.221373	0.242307	0.229303	0.307017	
495000	-56921.427	9.571	0.221373	0.242307	0.229303	0.307017	
496000	-56827.004	9.550	0.221373	0.242307	0.229303	0.307017	
497000	-56779.865	9.625	0.221373	0.242307	0.229303	0.307017	
498000	-56674.030	9.591	0.221373	0.242307	0.229303	0.307017	
499000	-56609.948	9.534	0.221373	0.242307	0.229303	0.307017	
500000	-56519.103	9.483	0.221373	0.242307	0.229303	0.307017	
501000	-56473.406	9.441	0.221373	0.242307	0.229303	0.307017	
502000	-56459.638	9.440	0.219954	0.236007	0.230246	0.313793	
503000	-56413.059	9.344	0.217392	0.237130	0.232833	0.312645	
504000	-56339.256	9.308	0.217392	0.237130	0.232833	0.312645	
505000	-56327.218	9.280	0.217392	0.237130	0.232833	0.312645	
506000	-56274.660	9.231	0.217392	0.237130	0.232833	0.312645	
507000	-56219.249	9.160	0.209376	0.240396	0.234841	0.315387	
508000	-56169.267	9.124	0.214846	0.241981	0.228941	0.314232	
509000	-56176.539	9.244	0.225099	0.241620	0.218075	0.315206	
510000	-56153.611	9.255	0.224435	0.236827	0.228907	0.309830	
511000	-56130.249	9.246	0.224829	0.240383	0.225957	0.308830	
512000	-56104.943	9.202	0.222054	0.240109	0.232750	0.305087	
513000	-56056.348	9.188	0.222054	0.240109	0.232750	0.305087	
514000	-55982.893	9.228	0.222054	0.240109	0.232750	0.305087	
515000	-55920.287	9.140	0.222054	0.240109	0.232750	0.305087	
516000	-55912.726	9.150	0.222054	0.240109	0.232750	0.305087	
517000	-55903.196	9.127	0.222054	0.240109	0.232750	0.305087	
518000	-55911.823	9.153	0.222054	0.240109	0.232750	0.305087	
519000	-55914.540	9.181	0.222054	0.240109	0.232750	0.305087	
520000	-55918.727	9.213	0.222054	0.240109	0.232750	0.305087	
521000	-55904.642	9.248	0.222054	0.240109	0.232750	0.305087	
522000	-55869.095	9.177	0.220679	0.241442	0.236108	0.301771	
523000	-55851.360	9.178	0.220679	0.241442	0.236108	0.301771	
524000	-55841.594	9.177	0.220679	0.241442	0.236108	0.301771	
525000	-55820.266	9.118	0.225346	0.239390	0.224651	0.310613	
526000	-55824.904	9.128	0.225346	0.239390	0.224651	0.310613	
527000	-55812.736	9.106	0.221223	0.249070	0.228994	0.300713	
528000	-55814.783	9.138	0.221223	0.249070	0.228994	0.300713	
529000	-55824.937	9.138	0.221223	0.249070	0.228994	0.300713	
530000	-55793.142	9.179	0.226908	0.236674	0.229604	0.306815	
531000	-55790.138	9.260	0.226908	0.236674	0.229604	0.306815	
532000	-55785.514	9.225	0.226908	0.236674	0.229604	0.306815	
533000	-55775.078	9.064	0.219905	0.246917	0.228982	0.304196	
534000	-55765.961	9.068	0.219905	0.246917	0.228982	0.304196	
535000	-55752.582	9.065	0.223144	0.240658	0.227558	0.308641	
536000	-55756.930	9.014	0.223144	0.240658	0.227558	0.308641	
537000	-55772.798	9.031	0.223144	0.240658	0.227558	0.308641	
538000	-55760.245	8.983	0.225644	0.245927	0.234141	0.294287	
539000	-55751.465	8.987	0.225644	0.245927	0.234141	0.294287	
540000	-55746.216	8.996	0.212481	0.247460	0.236407	0.303652	
541000	-55746.519	9.104	0.217590	0.240917	0.237499	0.303995	
542000	-55736.506	9.034	0.217590	0.240917	0.237499	0.303995	
543000	-55739.929	9.047	0.214310	0.244941	0.230756	0.309992	
544000	-55727.579	8.990	0.214310	0.244941	0.230756	0.309992	
545000	-55713.098	8.999	0.214310	0.244941	0.230756	0.309992	
546000	-55708.755	9.034	0.222775	0.235136	0.230481	0.311608	
547000	-55686.713	9.009	0.222775	0.235136	0.230481	0.311608	
548000	-55667.685	8.996	0.222775	0.235136	0.230481	0.311608	
549000	-55653.496	9.012	0.222775	0.235136	0.230481	0.311608	
550000	-55640.169	9.012	0.215731	0.237466	0.235753	0.311051	
551000	-55658.125	9.019	0.215731	0.237466	0.235753	0.311051	
552000	-55640.147	8.974	0.215731	0.237466	0.235753	0.311051	
553000	-55641.415	8.994	0.228570	0.240444	0.226416	0.304570	
554000	-55619.712	9.012	0.216639	0.231540	0.235852	0.315968	
555000	-55606.957	9.006	0.216639	0.231540	0.235852	0.315968	
556000	-55590.282	9.034	0.209329	0.237789	0.240901	0.311981	
557000	-55570.467	9.026	0.209329	0.237789	0.240901	0.311981	
558000	-55571.822	9.017	0.215849	0.237669	0.230028	0.316454	
559000	-55569.325	8.988	0.231229	0.239009	0.232923	0.296840	
560000	-55575.683	9.083	0.231229	0.239009	0.232923	0.296840	
561000	-55580.819	9.047	0.215677	0.239362	0.236152	0.308809	
562000	-55565.701	9.070	0.215677	0.239362	0.236152	0.308809	
563000	-55468.833	9.026	0.219172	0.242265	0.236619	0.301944	
564000	-55454.273	8.969	0.219172	0.242265	0.236619	0.301944	
565000	-55437.994	8.881	0.219172	0.242265	0.236619	0.301944	
566000	-55441.283	8.815	0.219172	0.242265	0.236619	0.301944	
567000	-55423.302	8.821	0.219172	0.242265	0.236619	0.301944	
568000	-55407.234	8.818	0.219172	0.242265	0.236619	0.301944	
569000	-55408.606	8.769	0.219172	0.242265	0.236619	0.301944	
570000	-55406.255	8.740	0.219172	0.242265	0.236619	0.301944	
571000	-55426.754	8.794	0.219172	0.242265	0.236619	0.301944	
572000	-55422.952	8.746	0.215897	0.244629	0.237645	0.301829	
573000	-55430.009	8.797	0.219638	0.238188	0.234968	0.307205	
574000	-55415.362	8.745	0.226599	0.250428	0.229216	0.293757	
575000	-55413.584	8.725	0.211306	0.241610	0.237862	0.309222	
576000	-55428.562	8.757	0.226430	0.242066	0.237029	0.294474	
577000	-55419.379	8.856	0.228488	0.243247	0.234695	0.293570	
578000	-55412.771	8.873	0.228488	0.243247	0.234695	0.293570	
579000	-55403.987	8.885	0.216246	0.240540	0.243551	0.299663	
580000	-55382.656	8.878	0.218855	0.246094	0.235467	0.299585	
581000	-55395.802	8.895	0.218855	0.246094	0.235467	0.299585	
582000	-55397.887	8.888	0.218855	0.246094	0.235467	0.299585	
583000	-55404.070	8.906	0.218855	0.246094	0.235467	0.299585	
584000	-55401.324	8.892	0.225170	0.242918	0.239168	0.292744	
585000	-55419.965	8.850	0.225170	0.242918	0.239168	0.292744	
586000	-55434.525	8.855	0.225170	0.242918	0.239168	0.292744	
587000	-55441.315	8.857	0.224173	0.240037	0.244323	0.291467	
588000	-55433.673	8.847	0.212072	0.248069	0.245351	0.294509	
589000	-55423.668	8.826	0.227255	0.251428	0.226333	0.294985	
590000	-55413.935	8.848	0.226746	0.239760	0.230440	0.303054	
591000	-55426.091	8.846	0.212800	0.235625	0.243758	0.307816	
592000	-55418.790	8.834	0.214465	0.245666	0.238347	0.301523	
593000	-55418.041	8.863	0.214465	0.245666	0.238347	0.301523	
594000	-55422.078	8.915	0.214465	0.245666	0.238347	0.301523	
595000	-55416.397	8.878	0.214465	0.245666	0.238347	0.301523	
596000	-55413.744	8.866	0.214465	0.245666	0.238347	0.301523	
597000	-55435.882	8.864	0.220651	0.244471	0.236237	0.298641	
598000	-55438.760	8.924	0.220651	0.244471	0.236237	0.298641	
599000	-55431.490	8.917	0.220651	0.244471	0.236237	0.298641	
600000	-55414.295	8.815	0.220651	0.244471	0.236237	0.298641	
601000	-55398.814	8.746	0.220651	0.244471	0.236237	0.298641	
602000	-55402.237	8.750	0.220026	0.247607	0.229925	0.302442	
603000	-55377.233	8.777	0.220752	0.243581	0.231823	0.303844	
604000	-55359.486	8.766	0.220752	0.243581	0.231823	0.303844	
605000	-55354.158	8.724	0.219736	0.243841	0.246019	0.290404	
606000	-55350.905	8.736	0.219736	0.243841	0.246019	0.290404	
607000	-55353.740	8.682	0.214392	0.245511	0.246342	0.293755	
608000	-55360.924	8.730	0.214392	0.245511	0.246342	0.293755	
609000	-55352.986	8.682	0.222174	0.239688	0.240740	0.297399	
610000	-55343.537	8.756	0.214415	0.244799	0.244714	0.296071	
611000	-55321.358	8.757	0.218946	0.248821	0.235210	0.297023	
612000	-55319.249	8.762	0.218946	0.248821	0.235210	0.297023	
613000	-55284.226	8.752	0.218946	0.248821	0.235210	0.297023	
614000	-55288.953	8.757	0.217623	0.242603	0.236446	0.303328	
615000	-55253.900	8.862	0.217623	0.242603	0.236446	0.303328	
616000	-55245.546	8.853	0.217623	0.242603	0.236446	0.303328	
617000	-55231.894	8.827	0.210743	0.249344	0.240829	0.299084	
618000	-55235.298	8.766	0.223313	0.234775	0.244006	0.297907	
619000	-55240.724	8.742	0.210965	0.243894	0.242135	0.303007	
620000	-55253.279	8.756	0.210965	0.243894	0.242135	0.303007	
621000	-55242.533	8.746	0.210965	0.243894	0.242135	0.303007	
622000	-55240.702	8.729	0.217615	0.244567	0.241439	0.296379	
623000	-55259.539	8.659	0.217615	0.244567	0.241439	0.296379	
624000	-55247.845	8.633	0.225959	0.252252	0.238690	0.283099	
625000	-55230.120	8.666	0.222455	0.248908	0.231843	0.296794	
626000	-55245.904	8.669	0.224697	0.249116	0.243801	0.282385	
627000	-55216.839	8.584	0.221471	0.246771	0.240353	0.291405	
628000	-55210.760	8.573	0.221471	0.246771	0.240353	0.291405	
629000	-55199.972	8.652	0.221471	0.246771	0.240353	0.291405	
630000	-55186.004	8.668	0.221471	0.246771	0.240353	0.291405	
631000	-55185.891	8.679	0.220796	0.240091	0.243185	0.295928	
632000	-55193.293	8.676	0.213917	0.249724	0.236312	0.300047	
633000	-55196.138	8.639	0.213917	0.249724	0.236312	0.300047	
634000	-55197.940	8.676	0.213917	0.249724	0.236312	0.300047	
635000	-54730.208	9.721	0.223815	0.230500	0.225725	0.319960	
636000	-54500.433	9.635	0.223815	0.230500	0.225725	0.319960	
637000	-54115.017	9.714	0.219126	0.225939	0.231863	0.323073	
638000	-53863.622	9.704	0.219126	0.225939	0.231863	0.323073	
639000	-53508.437	9.534	0.219126	0.225939	0.231863	0.323073	
640000	-53177.244	9.419	0.220737	0.229339	0.222291	0.327632	
641000	-52824.562	9.242	0.220737	0.229339	0.222291	0.327632	
642000	-52475.249	9.219	0.220737	0.229339	0.222291	0.327632	
643000	-52328.786	9.160	0.220737	0.229339	0.222291	0.327632	
644000	-52167.195	9.006	0.219285	0.224143	0.224678	0.331894	
645000	-52038.750	9.115	0.219285	0.224143	0.224678	0.331894	
646000	-51902.670	8.973	0.209154	0.233712	0.224583	0.332550	
647000	-51726.170	8.949	0.210910	0.235924	0.230157	0.323009	
648000	-51674.799	8.872	0.216944	0.221846	0.229702	0.331508	
649000	-51559.912	8.859	0.219975	0.221554	0.235693	0.322777	
650000	-51473.221	8.745	0.219975	0.221554	0.235693	0.322777	
651000	-51401.306	8.692	0.216270	0.228210	0.235079	0.320442	
652000	-51378.039	8.752	0.218651	0.228789	0.233518	0.319041	
653000	-51326.741	8.733	0.226171	0.223829	0.226376	0.323625	
654000	-51284.737	8.656	0.225998	0.230390	0.223111	0.320501	
655000	-51241.029	8.654	0.223256	0.230489	0.231018	0.315236	
656000	-51174.895	8.579	0.223256	0.230489	0.231018	0.315236	
657000	-51107.057	8.561	0.223256	0.230489	0.231018	0.315236	
658000	-51053.291	8.540	0.223256	0.230489	0.231018	0.315236	
659000	-50892.785	8.506	0.221092	0.228933	0.232125	0.317850	
660000	-50868.825	8.517	0.228277	0.231289	0.222968	0.317466	
661000	-50855.286	8.508	0.223788	0.238544	0.225496	0.312172	
662000	-50828.566	8.483	0.223788	0.238544	0.225496	0.312172	
663000	-50794.694	8.505	0.225745	0.234492	0.227553	0.312210	
664000	-50793.419	8.471	0.225745	0.234492	0.227553	0.312210	
665000	-50784.175	8.407	0.227750	0.235725	0.223268	0.313257	
666000	-50756.668	8.392	0.213075	0.232085	0.227962	0.326877	
667000	-50684.652	8.325	0.213075	0.232085	0.227962	0.326877	
668000	-50635.621	8.325	0.221818	0.226109	0.228141	0.323932	
669000	-50627.696	8.294	0.219035	0.231976	0.227396	0.321593	
670000	-50611.532	8.285	0.219035	0.231976	0.227396	0.321593	
671000	-50538.254	8.288	0.219035	0.231976	0.227396	0.321593	
672000	-50495.389	8.304	0.219035	0.231976	0.227396	0.321593	
673000	-50469.442	8.345	0.219035	0.231976	0.227396	0.321593	
674000	-50445.718	8.346	0.223919	0.227869	0.226404	0.321808	
675000	-50378.407	8.356	0.220652	0.224940	0.235708	0.318700	
676000	-50364.019	8.338	0.220652	0.224940	0.235708	0.318700	
677000	-50364.022	8.337	0.217898	0.234356	0.232708	0.315038	
678000	-50330.793	8.322	0.217898	0.234356	0.232708	0.315038	
679000	-50304.408	8.291	0.217898	0.234356	0.232708	0.315038	
680000	-50285.737	8.287	0.215133	0.231815	0.224854	0.328198	
681000	-50307.974	8.262	0.215386	0.236415	0.220441	0.327758	
682000	-50287.819	8.197	0.218888	0.232075	0.225915	0.323121	
683000	-50277.734	8.215	0.218888	0.232075	0.225915	0.323121	
684000	-50303.243	8.239	0.224407	0.225864	0.226776	0.322953	
685000	-50287.353	8.197	0.224407	0.225864	0.226776	0.322953	
686000	-50271.738	8.196	0.224407	0.225864	0.226776	0.322953	
687000	-50257.450	8.176	0.224407	0.225864	0.226776	0.322953	
688000	-50198.305	8.193	0.224201	0.234742	0.228681	0.312376	
689000	-50202.611	8.198	0.223085	0.226152	0.229092	0.321671	
690000	-50185.427	8.178	0.223085	0.226152	0.229092	0.321671	
691000	-50142.127	8.130	0.223085	0.226152	0.229092	0.321671	
692000	-50120.717	8.137	0.220045	0.238771	0.231672	0.309512	
693000	-50115.215	8.167	0.231066	0.231358	0.226117	0.311459	
694000	-50101.507	8.120	0.218213	0.234665	0.228004	0.319118	
695000	-50077.959	8.053	0.218213	0.234665	0.228004	0.319118	
696000	-50060.748	8.051	0.226254	0.224312	0.219090	0.330344	
697000	-49950.890	8.054	0.210591	0.231704	0.238479	0.319226	
698000	-49949.705	8.029	0.224737	0.236721	0.235607	0.302934	
699000	-49959.062	7.999	0.227882	0.237635	0.230937	0.303547	
700000	-49959.854	7.973	0.225811	0.231945	0.228413	0.313831	
701000	-49966.312	7.997	0.225811	0.231945	0.228413	0.313831	
702000	-49959.514	8.024	0.225811	0.231945	0.228413	0.313831	
703000	-49939.155	8.050	0.221193	0.229345	0.238032	0.311430	
704000	-49935.908	8.099	0.221193	0.229345	0.238032	0.311430	
705000	-49878.243	8.148	0.221193	0.229345	0.238032	0.311430	
706000	-49863.488	8.080	0.221193	0.229345	0.238032	0.311430	
707000	-49879.856	8.115	0.216516	0.237322	0.226762	0.319400	
708000	-49845.537	8.104	0.217944	0.236109	0.234481	0.311466	
709000	-49855.611	8.104	0.217944	0.236109	0.234481	0.311466	
710000	-49843.394	8.167	0.217944	0.236109	0.234481	0.311466	
711000	-49857.075	8.087	0.217944	0.236109	0.234481	0.311466	
712000	-49883.448	8.189	0.217944	0.236109	0.234481	0.311466	
713000	-49884.413	8.166	0.211218	0.230263	0.237961	0.320559	
714000	-49882.619	8.158	0.211218	0.230263	0.237961	0.320559	
715000	-49855.320	8.122	0.211779	0.232550	0.237965	0.317706	
716000	-49847.566	8.158	0.211779	0.232550	0.237965	0.317706	
717000	-49823.484	8.143	0.211779	0.232550	0.237965	0.317706	
718000	-49841.517	8.081	0.211779	0.232550	0.237965	0.317706	
719000	-49842.975	8.083	0.221823	0.228118	0.236527	0.313532	
720000	-49830.438	8.093	0.221563	0.227825	0.225702	0.324909	
721000	-49828.850	8.054	0.223816	0.227066	0.233291	0.315828	
722000	-49839.724	8.033	0.223816	0.227066	0.233291	0.315828	
723000	-49837.596	8.022	0.215048	0.230539	0.234715	0.319698	
724000	-49804.747	7.992	0.215048	0.230539	0.234715	0.319698	
725000	-49801.542	7.977	0.215048	0.230539	0.234715	0.319698	
726000	-49795.562	8.064	0.215048	0.230539	0.234715	0.319698	
727000	-49807.158	8.061	0.218722	0.232600	0.231837	0.316841	
728000	-49793.811	8.106	0.218722	0.232600	0.231837	0.316841	
729000	-49804.717	8.094	0.218722	0.232600	0.231837	0.316841	
730000	-49803.273	8.040	0.218722	0.232600	0.231837	0.316841	
731000	-49805.420	8.032	0.218722	0.232600	0.231837	0.316841	
732000	-49790.221	8.050	0.218722	0.232600	0.231837	0.316841	
733000	-49769.768	8.001	0.218722	0.232600	0.231837	0.316841	
734000	-49766.270	7.988	0.218722	0.232600	0.231837	0.316841	
735000	-49748.577	7.930	0.221718	0.223510	0.238532	0.316240	
736000	-49746.355	7.961	0.217246	0.240883	0.232427	0.309444	
737000	-49741.907	7.944	0.214997	0.229450	0.234309	0.321244	
738000	-49747.340	7.965	0.217808	0.227808	0.238929	0.315456	
739000	-49736.644	7.951	0.217206	0.230730	0.236442	0.315621	
740000	-49737.624	7.962	0.217206	0.230730	0.236442	0.315621	
741000	-49605.290	8.395	0.229083	0.230953	0.241132	0.298833	
742000	-49448.855	8.324	0.225307	0.246184	0.240557	0.287953	
743000	-49394.935	8.243	0.225307	0.246184	0.240557	0.287953	
744000	-49367.764	8.192	0.227770	0.238926	0.241378	0.291927	
745000	-49310.980	8.181	0.227770	0.238926	0.241378	0.291927	
746000	-49280.477	8.174	0.227770	0.238926	0.241378	0.291927	
747000	-49213.377	8.237	0.228426	0.236663	0.241525	0.293386	
748000	-49159.632	8.231	0.222582	0.244488	0.237329	0.295601	
749000	-49130.714	8.233	0.225503	0.236644	0.240217	0.297637	
750000	-49103.470	8.186	0.225503	0.236644	0.240217	0.297637	
751000	-49049.192	8.187	0.225503	0.236644	0.240217	0.297637	
752000	-49035.046	8.161	0.225503	0.236644	0.240217	0.297637	
753000	-49011.087	8.103	0.221595	0.240208	0.243812	0.294385	
754000	-48952.593	8.109	0.221423	0.242771	0.237672	0.298134	
755000	-48949.214	8.086	0.225664	0.236584	0.243979	0.293774	
756000	-48915.176	8.089	0.225664	0.236584	0.243979	0.293774	
757000	-48911.484	8.095	0.225664	0.236584	0.243979	0.293774	
758000	-48880.695	8.057	0.225664	0.236584	0.243979	0.293774	
759000	-48848.584	7.978	0.225664	0.236584	0.243979	0.293774	
760000	-48783.816	7.977	0.229250	0.237036	0.232205	0.301509	
761000	-48768.813	8.016	0.229250	0.237036	0.232205	0.301509	
762000	-48761.714	7.987	0.223509	0.247565	0.236876	0.292050	
763000	-48729.851	8.017	0.223509	0.247565	0.236876	0.292050	
764000	-48728.076	7.922	0.223509	0.247565	0.236876	0.292050	
765000	-48730.332	7.832	0.223247	0.235017	0.245815	0.295921	
766000	-48704.127	7.818	0.223247	0.235017	0.245815	0.295921	
767000	-48691.863	7.832	0.221841	0.240147	0.242999	0.295012	
768000	-48671.207	7.837	0.221841	0.240147	0.242999	0.295012	
769000	-48656.017	7.786	0.221841	0.240147	0.242999	0.295012	
770000	-48653.418	7.798	0.224438	0.240366	0.249867	0.285329	
771000	-48648.063	7.834	0.218245	0.240292	0.240208	0.301255	
772000	-48615.527	7.831	0.219935	0.243164	0.243414	0.293487	
773000	-48594.670	7.808	0.219935	0.243164	0.243414	0.293487	
774000	-48598.539	7.823	0.219935	0.243164	0.243414	0.293487	
775000	-48588.089	7.766	0.219935	0.243164	0.243414	0.293487	
776000	-48556.826	7.753	0.219935	0.243164	0.243414	0.293487	
777000	-48539.758	7.776	0.221098	0.241841	0.235134	0.301926	
778000	-48525.594	7.762	0.221098	0.241841	0.235134	0.301926	
779000	-48529.238	7.765	0.221098	0.241841	0.235134	0.301926	
780000	-48534.955	7.778	0.217698	0.241452	0.236479	0.304372	
781000	-48529.277	7.933	0.217698	0.241452	0.236479	0.304372	
782000	-48522.795	7.875	0.217698	0.241452	0.236479	0.304372	
783000	-48531.190	7.868	0.220150	0.242783	0.243229	0.293837	
784000	-48531.364	7.847	0.221599	0.237246	0.239976	0.301179	
785000	-48508.169	7.865	0.221599	0.237246	0.239976	0.301179	
786000	-48516.349	7.856	0.219411	0.237335	0.240422	0.302832	
787000	-48519.350	7.806	0.219411	0.237335	0.240422	0.302832	
788000	-48501.806	7.809	0.219411	0.237335	0.240422	0.302832	
789000	-48501.436	7.801	0.229044	0.241501	0.230054	0.299402	
790000	-48479.673	7.762	0.227264	0.241489	0.244831	0.286417	
791000	-48488.718	7.801	0.227264	0.241489	0.244831	0.286417	
792000	-48486.614	7.774	0.227264	0.241489	0.244831	0.286417	
793000	-48473.888	7.746	0.230504	0.234786	0.237365	0.297345	
794000	-48459.716	7.748	0.230504	0.234786	0.237365	0.297345	
795000	-48455.368	7.770	0.230504	0.234786	0.237365	0.297345	
796000	-48451.990	7.730	0.226331	0.244338	0.234669	0.294662	
797000	-48464.413	7.765	0.224857	0.241530	0.238252	0.295361	
798000	-48451.001	7.736	0.224857	0.241530	0.238252	0.295361	
799000	-48445.861	7.718	0.223402	0.238004	0.242389	0.296205	
800000	-48438.945	7.706	0.223350	0.245164	0.244274	0.287213	
801000	-48402.450	7.741	0.223350	0.245164	0.244274	0.287213	
802000	-48384.530	7.744	0.227157	0.246772	0.235758	0.290313	
803000	-48394.561	7.747	0.227157	0.246772	0.235758	0.290313	
804000	-48398.866	7.759	0.227157	0.246772	0.235758	0.290313	
805000	-48406.551	7.709	0.227157	0.246772	0.235758	0.290313	
806000	-48403.275	7.753	0.227157	0.246772	0.235758	0.290313	
807000	-48399.267	7.706	0.227157	0.246772	0.235758	0.290313	
808000	-48389.738	7.678	0.227157	0.246772	0.235758	0.290313	
809000	-48364.675	7.652	0.228779	0.240024	0.238714	0.292483	
810000	-48348.750	7.662	0.228779	0.240024	0.238714	0.292483	
811000	-48341.592	7.654	0.223313	0.243225	0.246267	0.287195	
812000	-48329.286	7.622	0.223313	0.243225	0.246267	0.287195	
813000	-48299.801	7.614	0.227331	0.235831	0.247762	0.289075	
814000	-48257.866	7.600	0.221794	0.239301	0.240544	0.298361	
815000	-48248.534	7.630	0.224704	0.243230	0.240388	0.291678	
816000	-48247.993	7.722	0.224704	0.243230	0.240388	0.291678	
817000	-48137.074	7.724	0.224704	0.243230	0.240388	0.291678	
818000	-47957.817	7.742	0.224704	0.243230	0.240388	0.291678	
819000	-47769.066	7.686	0.224704	0.243230	0.240388	0.291678	
820000	-47714.505	7.708	0.224704	0.243230	0.240388	0.291678	
821000	-47528.962	7.596	0.224704	0.243230	0.240388	0.291678	
822000	-47501.169	7.546	0.224704	0.243230	0.240388	0.291678	
823000	-47497.747	7.520	0.224704	0.243230	0.240388	0.291678	
824000	-47490.548	7.537	0.224704	0.243230	0.240388	0.291678	
825000	-47472.247	7.477	0.224704	0.243230	0.240388	0.291678	
826000	-47454.584	7.452	0.228340	0.246224	0.239058	0.286378	
827000	-47466.044	7.461	0.224387	0.237498	0.246826	0.291290	
828000	-47480.525	7.449	0.237171	0.237201	0.242033	0.283595	
829000	-47464.961	7.427	0.237171	0.237201	0.242033	0.283595	
830000	-47454.665	7.456	0.237171	0.237201	0.242033	0.283595	
831000	-47440.838	7.392	0.219139	0.251138	0.249534	0.280189	
832000	-47429.550	7.372	0.226571	0.242803	0.241420	0.289206	
833000	-47440.815	7.438	0.226571	0.242803	0.241420	0.289206	
834000	-47448.938	7.386	0.222503	0.241737	0.242682	0.293078	
835000	-47433.076	7.372	0.225904	0.237067	0.248313	0.288715	
836000	-47445.543	7.388	0.225904	0.237067	0.248313	0.288715	
837000	-47447.495	7.386	0.218343	0.248167	0.242521	0.290969	
838000	-47426.162	7.413	0.228501	0.237627	0.238553	0.295319	
839000	-47435.136	7.439	0.231311	0.246423	0.239280	0.282987	
840000	-47453.504	7.479	0.224673	0.234597	0.247278	0.293452	
841000	-47455.486	7.504	0.230102	0.247949	0.241068	0.280881	
842000	-47451.766	7.466	0.230102	0.247949	0.241068	0.280881	
843000	-47446.866	7.470	0.229739	0.240759	0.243818	0.285684	
844000	-47442.775	7.508	0.227195	0.240858	0.237015	0.294933	
845000	-47383.482	7.576	0.216599	0.247401	0.241469	0.294531	
846000	-47381.008	7.556	0.217936	0.247038	0.244852	0.290174	
847000	-47376.652	7.560	0.217936	0.247038	0.244852	0.290174	
848000	-47349.636	7.508	0.231000	0.234945	0.246507	0.287548	
849000	-47350.231	7.494	0.231000	0.234945	0.246507	0.287548	
850000	-47351.589	7.488	0.221855	0.252492	0.237449	0.288204	
851000	-47367.433	7.484	0.227683	0.243529	0.237027	0.291762	
852000	-47368.131	7.551	0.227683	0.243529	0.237027	0.291762	
853000	-47356.601	7.512	0.227683	0.243529	0.237027	0.291762	
854000	-47346.025	7.525	0.227683	0.243529	0.237027	0.291762	
855000	-47317.699	7.382	0.222492	0.242691	0.239368	0.295448	
856000	-47294.440	7.381	0.222492	0.242691	0.239368	0.295448	
857000	-47295.637	7.428	0.229947	0.240005	0.239023	0.291025	
858000	-47288.433	7.408	0.235003	0.244283	0.236145	0.284570	
859000	-47281.485	7.369	0.233718	0.242163	0.241105	0.283014	
860000	-47284.160	7.370	0.233718	0.242163	0.241105	0.283014	
861000	-47273.298	7.363	0.219134	0.245939	0.239527	0.295400	
862000	-47260.482	7.363	0.219134	0.245939	0.239527	0.295400	
863000	-47262.711	7.379	0.220286	0.248120	0.236406	0.295189	
864000	-47260.384	7.372	0.227435	0.242230	0.238876	0.291460	
865000	-47264.266	7.273	0.227435	0.242230	0.238876	0.291460	
866000	-47256.155	7.302	0.227435	0.242230	0.238876	0.291460	
867000	-47271.200	7.351	0.227435	0.242230	0.238876	0.291460	
868000	-47296.810	7.348	0.227435	0.242230	0.238876	0.291460	
869000	-47302.047	7.296	0.227435	0.242230	0.238876	0.291460	
870000	-47296.175	7.270	0.227435	0.242230	0.238876	0.291460	
871000	-47298.579	7.332	0.227435	0.242230	0.238876	0.291460	
872000	-47296.023	7.337	0.227435	0.242230	0.238876	0.291460	
873000	-47274.956	7.312	0.228288	0.241846	0.244082	0.285785	
874000	-47275.238	7.317	0.228288	0.241846	0.244082	0.285785	
875000	-47271.617	7.250	0.219353	0.247028	0.250273	0.283346	
876000	-47257.952	7.332	0.229759	0.251015	0.229990	0.289236	
877000	-47263.926	7.366	0.222661	0.245117	0.247548	0.284673	
878000	-47267.678	7.326	0.229476	0.234289	0.241350	0.294884	
879000	-47258.201	7.366	0.230927	0.239095	0.246115	0.283863	
880000	-47262.211	7.410	0.222753	0.244779	0.242005	0.290464	
881000	-47268.008	7.479	0.222753	0.244779	0.242005	0.290464	
882000	-47260.108	7.384	0.222753	0.244779	0.242005	0.290464	
883000	-47250.537	7.337	0.222753	0.244779	0.242005	0.290464	
884000	-47266.977	7.370	0.228189	0.244546	0.243988	0.283277	
885000	-47266.726	7.325	0.229761	0.238214	0.238096	0.293929	
886000	-47270.913	7.349	0.229761	0.238214	0.238096	0.293929	
887000	-47251.532	7.378	0.229761	0.238214	0.238096	0.293929	
888000	-47259.069	7.411	0.225334	0.245340	0.237059	0.292267	
889000	-47269.824	7.436	0.226621	0.244087	0.248464	0.280827	
890000	-47275.259	7.471	0.226365	0.243994	0.247495	0.282146	
891000	-47279.950	7.459	0.226365	0.243994	0.247495	0.282146	
892000	-47285.064	7.484	0.224407	0.242079	0.244730	0.288784	
893000	-47283.971	7.468	0.224407	0.242079	0.244730	0.288784	
894000	-47275.856	7.431	0.223989	0.239931	0.244656	0.291424	
895000	-47270.292	7.359	0.223989	0.239931	0.244656	0.291424	
896000	-47293.118	7.351	0.223989	0.239931	0.244656	0.291424	
897000	-47289.366	7.325	0.223989	0.239931	0.244656	0.291424	
898000	-47297.116	7.254	0.223989	0.239931	0.244656	0.291424	
899000	-47296.724	7.260	0.223989	0.239931	0.244656	0.291424	
900000	-47282.242	7.353	0.223989	0.239931	0.244656	0.291424	
901000	-47267.833	7.319	0.223989	0.239931	0.244656	0.291424	
902000	-47270.385	7.296	0.223989	0.239931	0.244656	0.291424	
903000	-47268.082	7.324	0.223989	0.239931	0.244656	0.291424	
904000	-47248.943	7.316	0.221319	0.245681	0.242017	0.290982	
905000	-47255.813	7.332	0.221319	0.245681	0.242017	0.290982	
906000	-47256.742	7.313	0.221319	0.245681	0.242017	0.290982	
907000	-47239.464	7.257	0.221319	0.245681	0.242017	0.290982	
908000	-47232.294	7.258	0.221319	0.245681	0.242017	0.290982	
909000	-47229.085	7.243	0.224519	0.242691	0.238391	0.294399	
910000	-47216.309	7.261	0.222704	0.242977	0.236676	0.297642	
911000	-47212.936	7.266	0.229973	0.237849	0.231358	0.300819	
912000	-47219.323	7.259	0.229973	0.237849	0.231358	0.300819	
913000	-47232.236	7.269	0.229407	0.235175	0.240806	0.294612	
914000	-47230.677	7.235	0.222545	0.240896	0.249330	0.287230	
915000	-47220.469	7.231	0.221422	0.245123	0.251371	0.282084	
916000	-47235.049	7.248	0.234575	0.243658	0.238865	0.282902	
917000	-47235.295	7.275	0.234575	0.243658	0.238865	0.282902	
918000	-47235.405	7.252	0.226306	0.236439	0.244848	0.292406	
919000	-47219.524	7.252	0.229749	0.238017	0.244318	0.287916	
920000	-47214.073	7.254	0.229749	0.238017	0.244318	0.287916	
921000	-47218.519	7.225	0.219807	0.251260	0.244849	0.284083	
922000	-47211.341	7.253	0.219807	0.251260	0.244849	0.284083	
923000	-47233.889	7.276	0.227980	0.241334	0.246138	0.284549	
924000	-47236.343	7.290	0.227980	0.241334	0.246138	0.284549	
925000	-47241.657	7.268	0.227980	0.241334	0.246138	0.284549	
926000	-47236.990	7.251	0.227980	0.241334	0.246138	0.284549	
927000	-47226.636	7.217	0.227980	0.241334	0.246138	0.284549	
928000	-47241.446	7.307	0.227980	0.241334	0.246138	0.284549	
929000	-47250.780	7.306	0.227980	0.241334	0.246138	0.284549	
930000	-47242.466	7.309	0.228525	0.241419	0.244487	0.285569	
931000	-47231.136	7.356	0.228525	0.241419	0.244487	0.285569	
932000	-47222.644	7.331	0.228525	0.241419	0.244487	0.285569	
933000	-47224.800	7.335	0.228525	0.241419	0.244487	0.285569	
934000	-47242.039	7.313	0.223708	0.239141	0.248630	0.288521	
935000	-47237.398	7.311	0.223708	0.239141	0.248630	0.288521	
936000	-47222.460	7.323	0.225608	0.245976	0.239568	0.288848	
937000	-47219.328	7.284	0.224251	0.244028	0.243424	0.288296	
938000	-47207.640	7.325	0.224251	0.244028	0.243424	0.288296	
939000	-47204.530	7.314	0.224251	0.244028	0.243424	0.288296	
940000	-47209.629	7.372	0.224251	0.244028	0.243424	0.288296	
941000	-47216.190	7.369	0.224251	0.244028	0.243424	0.288296	
942000	-47242.300	7.353	0.224251	0.244028	0.243424	0.288296	
943000	-47260.321	7.328	0.216558	0.238375	0.246962	0.298106	
944000	-47255.525	7.307	0.219593	0.252631	0.235173	0.292604	
945000	-47234.799	7.302	0.218829	0.246367	0.240091	0.294713	
946000	-47243.166	7.310	0.236314	0.242400	0.241310	0.279976	
947000	-47254.863	7.322	0.237360	0.241963	0.239048	0.281629	
948000	-47261.086	7.338	0.231086	0.238840	0.234942	0.295132	
949000	-47277.182	7.282	0.224162	0.244666	0.247834	0.283338	
950000	-47259.474	7.267	0.224162	0.244666	0.247834	0.283338	
951000	-47228.588	7.232	0.224162	0.244666	0.247834	0.283338	
952000	-47239.213	7.253	0.230157	0.241643	0.241159	0.287042	
953000	-47255.874	7.269	0.230157	0.241643	0.241159	0.287042	
954000	-47243.944	7.244	0.236686	0.240876	0.245327	0.277111	
955000	-47232.596	7.207	0.225387	0.241694	0.242102	0.290817	
956000	-47220.956	7.204	0.225387	0.241694	0.242102	0.290817	
957000	-47223.129	7.238	0.225387	0.241694	0.242102	0.290817	
958000	-47221.964	7.282	0.225387	0.241694	0.242102	0.290817	
959000	-47229.856	7.281	0.225387	0.241694	0.242102	0.290817	
960000	-47214.606	7.205	0.225387	0.241694	0.242102	0.290817	
961000	-47209.649	7.178	0.225387	0.241694	0.242102	0.290817	
962000	-47208.337	7.209	0.225387	0.241694	0.242102	0.290817	
963000	-47208.956	7.229	0.227901	0.239136	0.242986	0.289976	
964000	-47183.555	7.177	0.227901	0.239136	0.242986	0.289976	
965000	-47190.200	7.200	0.227605	0.240823	0.240975	0.290596	
966000	-47200.471	7.199	0.223246	0.241508	0.248476	0.286770	
967000	-47180.999	7.217	0.229469	0.248819	0.240550	0.281162	
968000	-47199.264	7.246	0.229469	0.248819	0.240550	0.281162	
969000	-47217.774	7.258	0.219890	0.244147	0.245091	0.290873	
970000	-47222.031	7.305	0.229574	0.251246	0.235743	0.283437	
971000	-47211.426	7.344	0.218616	0.239786	0.253295	0.288304	
972000	-47216.908	7.319	0.224888	0.238473	0.247556	0.289083	
973000	-47216.717	7.337	0.224888	0.238473	0.247556	0.289083	
974000	-47201.389	7.292	0.224888	0.238473	0.247556	0.289083	
975000	-47195.894	7.291	0.224888	0.238473	0.247556	0.289083	
976000	-47181.337	7.365	0.224888	0.238473	0.247556	0.289083	
977000	-47204.934	7.393	0.224888	0.238473	0.247556	0.289083	
978000	-47219.906	7.402	0.224888	0.238473	0.247556	0.289083	
979000	-47200.768	7.341	0.226312	0.245821	0.246809	0.281058	
980000	-47220.150	7.348	0.226312	0.245821	0.246809	0.281058	
981000	-47220.782	7.336	0.226350	0.241355	0.248094	0.284201	
982000	-47214.859	7.308	0.226350	0.241355	0.248094	0.284201	
983000	-47220.986	7.292	0.226350	0.241355	0.248094	0.284201	
984000	-47221.295	7.265	0.226350	0.241355	0.248094	0.284201	
985000	-47200.899	7.251	0.222065	0.241838	0.240429	0.295668	
986000	-47222.788	7.241	0.224412	0.245433	0.242034	0.288121	
987000	-47236.693	7.233	0.227649	0.244341	0.246443	0.281566	
988000	-47221.977	7.244	0.227649	0.244341	0.246443	0.281566	
989000	-47234.675	7.250	0.227649	0.244341	0.246443	0.281566	
990000	-47226.117	7.276	0.227649	0.244341	0.246443	0.281566	
991000	-47239.457	7.292	0.228595	0.244134	0.239013	0.288258	
992000	-47246.904	7.306	0.228595	0.244134	0.239013	0.288258	
993000	-47265.910	7.290	0.228595	0.244134	0.239013	0.288258	
994000	-47263.855	7.259	0.216856	0.241057	0.252273	0.289815	
995000	-47279.956	7.230	0.243951	0.233603	0.238247	0.284199	
996000	-47286.841	7.253	0.231020	0.242768	0.231705	0.294507	
997000	-47271.079	7.280	0.224947	0.251806	0.239707	0.283540	
998000	-47263.828	7.321	0.227705	0.245207	0.238768	0.288320	
999000	-47228.200	7.294	0.222041	0.247197	0.236135	0.294626	
1000000	-47233.262	7.278	0.222041	0.247197	0.236135	0.294626	
