[ID: 6831277268]
Gen	LnL	TL	pi(A)	pi(C)	pi(G)	pi(T)	
1	-336559.379	108.500	0.250000	0.250000	0.250000	0.250000	
1000	-314670.559	104.298	0.218216	0.218617	0.226467	0.336700	
2000	-298608.053	98.544	0.216402	0.202828	0.225040	0.355729	
3000	-283448.400	94.097	0.222758	0.208641	0.213009	0.355592	
4000	-271531.669	89.664	0.216402	0.202828	0.225040	0.355729	
5000	-259242.997	86.360	0.216402	0.202828	0.225040	0.355729	
6000	-248551.119	82.504	0.213315	0.217076	0.220331	0.349279	
7000	-241211.167	78.399	0.213315	0.217076	0.220331	0.349279	
8000	-232510.128	74.264	0.213315	0.217076	0.220331	0.349279	
9000	-225011.132	71.093	0.213315	0.217076	0.220331	0.349279	
10000	-216764.681	67.933	0.213315	0.217076	0.220331	0.349279	
11000	-210675.064	65.224	0.213315	0.217076	0.220331	0.349279	
12000	-204670.716	62.549	0.213315	0.217076	0.220331	0.349279	
13000	-199817.148	60.385	0.213315	0.217076	0.220331	0.349279	
14000	-194572.139	58.379	0.218142	0.217338	0.220746	0.343774	
15000	-189379.895	56.126	0.218142	0.217338	0.220746	0.343774	
16000	-185335.916	54.672	0.218142	0.217338	0.220746	0.343774	
17000	-180912.068	53.420	0.218142	0.217338	0.220746	0.343774	
18000	-176503.923	50.277	0.217181	0.219499	0.215803	0.347517	
19000	-172063.494	48.215	0.207192	0.223413	0.219125	0.350270	
20000	-168531.220	46.492	0.209914	0.221407	0.223022	0.345656	
21000	-165888.108	45.124	0.209914	0.221407	0.223022	0.345656	
22000	-162506.776	43.606	0.209914	0.221407	0.223022	0.345656	
23000	-159666.203	42.061	0.209914	0.221407	0.223022	0.345656	
24000	-157156.851	40.994	0.213251	0.221566	0.219876	0.345308	
25000	-154915.965	39.170	0.213251	0.221566	0.219876	0.345308	
26000	-152485.790	37.786	0.210884	0.224941	0.220335	0.343840	
27000	-149988.375	37.034	0.210884	0.224941	0.220335	0.343840	
28000	-148206.022	36.314	0.210884	0.224941	0.220335	0.343840	
29000	-145757.001	34.965	0.213452	0.227621	0.220787	0.338141	
30000	-144052.713	33.877	0.213452	0.227621	0.220787	0.338141	
31000	-141949.412	33.243	0.213452	0.227621	0.220787	0.338141	
32000	-139995.043	32.662	0.210303	0.230210	0.222464	0.337023	
33000	-137874.306	32.067	0.210303	0.230210	0.222464	0.337023	
34000	-136011.136	31.580	0.210303	0.230210	0.222464	0.337023	
35000	-134009.692	31.004	0.210303	0.230210	0.222464	0.337023	
36000	-132485.260	29.962	0.203369	0.233404	0.228691	0.334536	
37000	-131086.197	29.080	0.203369	0.233404	0.228691	0.334536	
38000	-129652.622	28.488	0.203369	0.233404	0.228691	0.334536	
39000	-128175.341	28.261	0.203369	0.233404	0.228691	0.334536	
40000	-127105.992	27.590	0.203369	0.233404	0.228691	0.334536	
41000	-125797.845	26.990	0.206789	0.234058	0.233960	0.325193	
42000	-124852.917	26.286	0.206789	0.234058	0.233960	0.325193	
43000	-123604.702	25.954	0.205468	0.238457	0.226246	0.329829	
44000	-122222.977	25.529	0.205468	0.238457	0.226246	0.329829	
45000	-121413.785	25.343	0.205468	0.238457	0.226246	0.329829	
46000	-120512.748	24.988	0.202059	0.246012	0.229999	0.321930	
47000	-119612.505	24.803	0.202059	0.246012	0.229999	0.321930	
48000	-118678.271	24.360	0.202420	0.237989	0.237885	0.321706	
49000	-117792.221	24.876	0.206294	0.233895	0.221918	0.337893	
50000	-116570.537	24.512	0.206294	0.233895	0.221918	0.337893	
51000	-115592.879	23.796	0.207842	0.236531	0.226246	0.329381	
52000	-114694.380	23.782	0.207842	0.236531	0.226246	0.329381	
53000	-113591.832	23.414	0.207842	0.236531	0.226246	0.329381	
54000	-113003.556	23.075	0.207842	0.236531	0.226246	0.329381	
55000	-111549.034	22.863	0.207842	0.236531	0.226246	0.329381	
56000	-110465.082	22.765	0.206379	0.238557	0.223602	0.331462	
57000	-109557.812	22.491	0.203602	0.237021	0.224578	0.334799	
58000	-108625.081	22.248	0.210906	0.231193	0.227820	0.330081	
59000	-107581.137	22.147	0.210906	0.231193	0.227820	0.330081	
60000	-106325.203	21.899	0.210906	0.231193	0.227820	0.330081	
61000	-105282.854	21.536	0.210906	0.231193	0.227820	0.330081	
62000	-104367.993	21.226	0.213503	0.236008	0.225183	0.325305	
63000	-103822.407	20.944	0.213503	0.236008	0.225183	0.325305	
64000	-103146.751	20.636	0.215437	0.233255	0.226709	0.324598	
65000	-102084.569	20.537	0.215437	0.233255	0.226709	0.324598	
66000	-101543.372	20.296	0.215437	0.233255	0.226709	0.324598	
67000	-101187.974	20.016	0.215437	0.233255	0.226709	0.324598	
68000	-100338.054	19.906	0.215437	0.233255	0.226709	0.324598	
69000	-99606.071	19.753	0.215437	0.233255	0.226709	0.324598	
70000	-99009.201	19.580	0.215437	0.233255	0.226709	0.324598	
71000	-98344.864	19.297	0.215437	0.233255	0.226709	0.324598	
72000	-97704.720	19.020	0.215437	0.233255	0.226709	0.324598	
73000	-97341.349	18.867	0.215437	0.233255	0.226709	0.324598	
74000	-96642.758	18.754	0.215437	0.233255	0.226709	0.324598	
75000	-95976.585	18.483	0.215437	0.233255	0.226709	0.324598	
76000	-95336.049	18.238	0.215437	0.233255	0.226709	0.324598	
77000	-94519.734	18.026	0.215437	0.233255	0.226709	0.324598	
78000	-94289.449	17.833	0.215437	0.233255	0.226709	0.324598	
79000	-93973.820	17.715	0.215437	0.233255	0.226709	0.324598	
80000	-93363.062	17.469	0.208675	0.240244	0.230371	0.320710	
81000	-92963.253	17.312	0.208675	0.240244	0.230371	0.320710	
82000	-92504.633	17.393	0.208675	0.240244	0.230371	0.320710	
83000	-92061.906	17.228	0.208675	0.240244	0.230371	0.320710	
84000	-91926.576	17.072	0.208675	0.240244	0.230371	0.320710	
85000	-91661.432	16.898	0.212538	0.242019	0.229587	0.315855	
86000	-91447.761	16.785	0.211198	0.242171	0.233977	0.312654	
87000	-91040.963	16.708	0.211198	0.242171	0.233977	0.312654	
88000	-90780.108	16.363	0.211198	0.242171	0.233977	0.312654	
89000	-90615.546	16.212	0.211198	0.242171	0.233977	0.312654	
90000	-90318.716	16.193	0.211198	0.242171	0.233977	0.312654	
91000	-90025.946	16.079	0.211424	0.247969	0.232323	0.308285	
92000	-89622.897	15.994	0.210534	0.247150	0.235131	0.307185	
93000	-88958.723	15.984	0.210534	0.247150	0.235131	0.307185	
94000	-88667.835	15.970	0.209018	0.247974	0.233107	0.309901	
95000	-88515.243	15.891	0.219041	0.246817	0.231820	0.302322	
96000	-88329.846	15.937	0.219041	0.246817	0.231820	0.302322	
97000	-88042.856	15.887	0.220165	0.243148	0.233026	0.303662	
98000	-87790.141	15.822	0.215829	0.233242	0.230289	0.320640	
99000	-87516.784	15.614	0.214727	0.231925	0.225695	0.327653	
100000	-87396.251	15.498	0.219175	0.241889	0.223424	0.315512	
101000	-87209.771	15.280	0.219175	0.241889	0.223424	0.315512	
102000	-86875.967	15.347	0.209871	0.247054	0.239999	0.303076	
103000	-86761.047	15.226	0.209871	0.247054	0.239999	0.303076	
104000	-86630.279	15.288	0.222231	0.247009	0.230471	0.300289	
105000	-86482.101	15.307	0.210541	0.243793	0.227752	0.317913	
106000	-86220.423	15.360	0.210541	0.243793	0.227752	0.317913	
107000	-85948.922	15.312	0.210541	0.243793	0.227752	0.317913	
108000	-85771.755	15.238	0.210541	0.243793	0.227752	0.317913	
109000	-85687.106	15.044	0.210541	0.243793	0.227752	0.317913	
110000	-85570.343	15.057	0.210541	0.243793	0.227752	0.317913	
111000	-85179.644	15.061	0.217440	0.251741	0.228140	0.302678	
112000	-84646.583	14.869	0.212433	0.250696	0.224965	0.311907	
113000	-84269.768	14.734	0.217527	0.249766	0.228908	0.303799	
114000	-83896.788	14.567	0.220795	0.248837	0.225417	0.304951	
115000	-83606.111	14.508	0.220795	0.248837	0.225417	0.304951	
116000	-83436.514	14.432	0.218551	0.248344	0.233385	0.299721	
117000	-83272.104	14.280	0.218551	0.248344	0.233385	0.299721	
118000	-83244.246	14.263	0.218551	0.248344	0.233385	0.299721	
119000	-83199.952	14.285	0.218551	0.248344	0.233385	0.299721	
120000	-83061.420	14.355	0.218551	0.248344	0.233385	0.299721	
121000	-83010.860	14.400	0.218551	0.248344	0.233385	0.299721	
122000	-82851.028	14.390	0.213882	0.248030	0.228849	0.309239	
123000	-82819.203	14.357	0.213882	0.248030	0.228849	0.309239	
124000	-82681.153	14.201	0.213882	0.248030	0.228849	0.309239	
125000	-82638.186	14.143	0.213882	0.248030	0.228849	0.309239	
126000	-82573.916	14.129	0.213882	0.248030	0.228849	0.309239	
127000	-82540.540	14.081	0.213882	0.248030	0.228849	0.309239	
128000	-82333.526	14.149	0.213882	0.248030	0.228849	0.309239	
129000	-82297.018	14.042	0.213882	0.248030	0.228849	0.309239	
130000	-82271.858	14.061	0.215636	0.245168	0.237092	0.302104	
131000	-82232.917	13.994	0.215636	0.245168	0.237092	0.302104	
132000	-82208.491	13.976	0.215636	0.245168	0.237092	0.302104	
133000	-82196.945	13.892	0.214605	0.246973	0.234275	0.304147	
134000	-82157.850	13.787	0.214605	0.246973	0.234275	0.304147	
135000	-81805.476	14.074	0.209173	0.245788	0.235356	0.309683	
136000	-81646.789	13.914	0.209173	0.245788	0.235356	0.309683	
137000	-81083.526	13.868	0.209173	0.245788	0.235356	0.309683	
138000	-80467.437	13.972	0.209173	0.245788	0.235356	0.309683	
139000	-80091.628	13.879	0.209173	0.245788	0.235356	0.309683	
140000	-79507.485	13.778	0.209173	0.245788	0.235356	0.309683	
141000	-78911.743	13.673	0.209173	0.245788	0.235356	0.309683	
142000	-78308.479	13.611	0.214944	0.237474	0.237880	0.309702	
143000	-78062.602	13.574	0.214944	0.237474	0.237880	0.309702	
144000	-77633.041	13.639	0.214944	0.237474	0.237880	0.309702	
145000	-77384.762	13.598	0.214944	0.237474	0.237880	0.309702	
146000	-77289.833	13.492	0.214944	0.237474	0.237880	0.309702	
147000	-76853.739	13.491	0.214944	0.237474	0.237880	0.309702	
148000	-76482.247	13.319	0.214944	0.237474	0.237880	0.309702	
149000	-76299.475	13.136	0.223172	0.240980	0.229028	0.306820	
150000	-76159.167	13.147	0.223172	0.240980	0.229028	0.306820	
151000	-75529.236	13.171	0.221037	0.241391	0.234759	0.302814	
152000	-75145.332	13.053	0.217514	0.240734	0.233608	0.308144	
153000	-74711.075	12.924	0.217514	0.240734	0.233608	0.308144	
154000	-74053.498	12.822	0.217514	0.240734	0.233608	0.308144	
155000	-73540.880	12.602	0.217514	0.240734	0.233608	0.308144	
156000	-73276.099	12.620	0.217514	0.240734	0.233608	0.308144	
157000	-73056.807	12.595	0.217514	0.240734	0.233608	0.308144	
158000	-72825.121	12.520	0.217514	0.240734	0.233608	0.308144	
159000	-72628.167	12.315	0.217514	0.240734	0.233608	0.308144	
160000	-72387.965	12.306	0.217514	0.240734	0.233608	0.308144	
161000	-72234.663	12.273	0.217514	0.240734	0.233608	0.308144	
162000	-72038.485	12.275	0.223365	0.247985	0.235269	0.293381	
163000	-71893.649	12.224	0.223365	0.247985	0.235269	0.293381	
164000	-71821.157	12.322	0.211562	0.251549	0.239776	0.297113	
165000	-71754.162	12.265	0.222031	0.241188	0.231366	0.305414	
166000	-71675.486	12.111	0.222031	0.241188	0.231366	0.305414	
167000	-71630.603	12.057	0.212041	0.246813	0.243469	0.297677	
168000	-71548.726	11.940	0.215645	0.244163	0.241045	0.299147	
169000	-71519.211	11.938	0.218175	0.249847	0.236168	0.295809	
170000	-71497.482	11.957	0.218175	0.249847	0.236168	0.295809	
171000	-71461.983	11.975	0.218175	0.249847	0.236168	0.295809	
172000	-71425.128	11.921	0.218175	0.249847	0.236168	0.295809	
173000	-71367.823	11.923	0.219121	0.242501	0.235892	0.302486	
174000	-71360.452	11.839	0.220310	0.242964	0.239498	0.297229	
175000	-71329.187	11.798	0.220310	0.242964	0.239498	0.297229	
176000	-71315.261	11.724	0.220310	0.242964	0.239498	0.297229	
177000	-71286.921	11.722	0.220310	0.242964	0.239498	0.297229	
178000	-71266.286	11.761	0.220310	0.242964	0.239498	0.297229	
179000	-71260.261	11.677	0.216057	0.247643	0.236833	0.299467	
180000	-71228.643	11.679	0.216057	0.247643	0.236833	0.299467	
181000	-71176.734	11.756	0.216057	0.247643	0.236833	0.299467	
182000	-71129.551	11.675	0.216057	0.247643	0.236833	0.299467	
183000	-71138.367	11.714	0.216057	0.247643	0.236833	0.299467	
184000	-71114.845	11.610	0.221735	0.247684	0.231293	0.299288	
185000	-71113.508	11.669	0.221735	0.247684	0.231293	0.299288	
186000	-71073.180	11.619	0.221735	0.247684	0.231293	0.299288	
187000	-71063.989	11.629	0.217534	0.250273	0.234191	0.298002	
188000	-71060.820	11.664	0.217534	0.250273	0.234191	0.298002	
189000	-71047.883	11.663	0.217534	0.250273	0.234191	0.298002	
190000	-71031.340	11.697	0.220461	0.241455	0.235168	0.302916	
191000	-71012.585	11.624	0.215931	0.249912	0.238568	0.295589	
192000	-71023.190	11.576	0.215931	0.249912	0.238568	0.295589	
193000	-71008.261	11.515	0.215931	0.249912	0.238568	0.295589	
194000	-71017.394	11.497	0.215931	0.249912	0.238568	0.295589	
195000	-71000.344	11.384	0.215931	0.249912	0.238568	0.295589	
196000	-71001.980	11.463	0.216098	0.244991	0.236912	0.302000	
197000	-70977.387	11.434	0.216098	0.244991	0.236912	0.302000	
198000	-70993.317	11.537	0.216098	0.244991	0.236912	0.302000	
199000	-71000.056	11.534	0.216098	0.244991	0.236912	0.302000	
200000	-71001.128	11.628	0.216098	0.244991	0.236912	0.302000	
201000	-70989.362	11.636	0.213995	0.246614	0.232833	0.306559	
202000	-70986.945	11.720	0.213995	0.246614	0.232833	0.306559	
203000	-70998.208	11.760	0.218675	0.248472	0.237707	0.295146	
204000	-71011.445	11.810	0.218675	0.248472	0.237707	0.295146	
205000	-70983.322	11.800	0.218675	0.248472	0.237707	0.295146	
206000	-70983.411	11.872	0.218675	0.248472	0.237707	0.295146	
207000	-70981.415	11.837	0.218675	0.248472	0.237707	0.295146	
208000	-70956.121	11.792	0.218675	0.248472	0.237707	0.295146	
209000	-70927.023	12.334	0.226302	0.239616	0.226520	0.307562	
210000	-70863.487	12.244	0.230222	0.230218	0.229087	0.310472	
211000	-70783.270	12.093	0.222485	0.235688	0.237846	0.303981	
212000	-70664.490	11.958	0.222485	0.235688	0.237846	0.303981	
213000	-70615.561	11.912	0.222485	0.235688	0.237846	0.303981	
214000	-70212.874	11.982	0.222485	0.235688	0.237846	0.303981	
215000	-69958.953	11.888	0.222485	0.235688	0.237846	0.303981	
216000	-69871.479	11.972	0.222485	0.235688	0.237846	0.303981	
217000	-69644.019	11.976	0.217656	0.239624	0.232950	0.309770	
218000	-69553.072	11.948	0.217656	0.239624	0.232950	0.309770	
219000	-69444.037	11.917	0.217656	0.239624	0.232950	0.309770	
220000	-69083.727	11.862	0.217656	0.239624	0.232950	0.309770	
221000	-68855.862	11.827	0.220332	0.239748	0.232980	0.306941	
222000	-68805.420	11.797	0.228194	0.242854	0.236348	0.292604	
223000	-68790.635	11.785	0.228194	0.242854	0.236348	0.292604	
224000	-68756.706	11.626	0.228194	0.242854	0.236348	0.292604	
225000	-68584.447	11.430	0.228194	0.242854	0.236348	0.292604	
226000	-68525.464	11.364	0.220917	0.238494	0.229171	0.311418	
227000	-68446.072	11.360	0.232347	0.237238	0.236060	0.294354	
228000	-68390.081	11.350	0.222464	0.240987	0.245525	0.291023	
229000	-68189.276	11.357	0.212964	0.245286	0.241750	0.300001	
230000	-68023.729	11.269	0.226901	0.244679	0.237557	0.290863	
231000	-67914.478	11.280	0.233075	0.237929	0.234898	0.294098	
232000	-67850.806	11.328	0.228217	0.244800	0.224857	0.302126	
233000	-67776.101	11.399	0.228217	0.244800	0.224857	0.302126	
234000	-67623.118	11.429	0.228539	0.231645	0.231136	0.308679	
235000	-67483.547	11.460	0.222982	0.238500	0.221988	0.316530	
236000	-67354.560	11.433	0.229761	0.235023	0.228909	0.306307	
237000	-67175.206	11.402	0.229761	0.235023	0.228909	0.306307	
238000	-66395.264	11.529	0.229761	0.235023	0.228909	0.306307	
239000	-66072.911	11.396	0.229068	0.231611	0.232833	0.306487	
240000	-65531.652	11.438	0.211335	0.242925	0.239170	0.306571	
241000	-65370.020	11.347	0.220041	0.240135	0.229460	0.310365	
242000	-65276.731	11.284	0.214223	0.231702	0.235773	0.318302	
243000	-65212.689	11.265	0.221371	0.238978	0.236996	0.302655	
244000	-65024.646	11.257	0.216764	0.234506	0.238758	0.309972	
245000	-64974.711	11.167	0.218936	0.233123	0.233460	0.314481	
246000	-64910.521	11.101	0.218936	0.233123	0.233460	0.314481	
247000	-64847.611	11.087	0.218936	0.233123	0.233460	0.314481	
248000	-64730.291	10.950	0.222277	0.237773	0.236604	0.303346	
249000	-64724.273	10.996	0.225283	0.235977	0.230031	0.308708	
250000	-64680.815	10.947	0.225283	0.235977	0.230031	0.308708	
251000	-64680.185	11.012	0.225283	0.235977	0.230031	0.308708	
252000	-64655.532	10.985	0.225283	0.235977	0.230031	0.308708	
253000	-64611.414	11.030	0.225283	0.235977	0.230031	0.308708	
254000	-64589.692	11.044	0.225283	0.235977	0.230031	0.308708	
255000	-64579.460	11.011	0.225283	0.235977	0.230031	0.308708	
256000	-64560.222	11.028	0.211399	0.238465	0.240262	0.309874	
257000	-64519.797	10.932	0.211399	0.238465	0.240262	0.309874	
258000	-64491.476	10.916	0.211399	0.238465	0.240262	0.309874	
259000	-64452.519	10.863	0.217775	0.244993	0.225220	0.312012	
260000	-64395.737	10.797	0.224613	0.246334	0.224171	0.304882	
261000	-64389.544	10.837	0.224962	0.237065	0.226511	0.311462	
262000	-64374.415	10.712	0.228790	0.238993	0.227299	0.304919	
263000	-64141.524	10.719	0.228790	0.238993	0.227299	0.304919	
264000	-63810.563	10.813	0.218998	0.239287	0.226567	0.315148	
265000	-63795.759	10.789	0.218998	0.239287	0.226567	0.315148	
266000	-63571.771	10.757	0.215948	0.244481	0.227329	0.312243	
267000	-62927.452	10.524	0.213794	0.240257	0.234538	0.311411	
268000	-62618.591	10.652	0.213794	0.240257	0.234538	0.311411	
269000	-61873.714	10.626	0.213794	0.240257	0.234538	0.311411	
270000	-61601.771	10.433	0.216361	0.231569	0.238457	0.313614	
271000	-61426.165	10.336	0.215948	0.234304	0.225631	0.324117	
272000	-61081.332	10.351	0.229415	0.233697	0.224622	0.312266	
273000	-60476.235	10.385	0.223386	0.225020	0.228180	0.323414	
274000	-60058.557	10.373	0.223386	0.225020	0.228180	0.323414	
275000	-59888.572	10.325	0.222630	0.237093	0.223659	0.316618	
276000	-59500.915	10.172	0.223778	0.228984	0.225912	0.321326	
277000	-59402.218	10.153	0.223778	0.228984	0.225912	0.321326	
278000	-59073.870	10.048	0.223778	0.228984	0.225912	0.321326	
279000	-58904.655	10.121	0.223778	0.228984	0.225912	0.321326	
280000	-58641.287	10.050	0.223778	0.228984	0.225912	0.321326	
281000	-58348.956	9.978	0.223778	0.228984	0.225912	0.321326	
282000	-58277.925	9.930	0.223778	0.228984	0.225912	0.321326	
283000	-58194.863	9.862	0.223778	0.228984	0.225912	0.321326	
284000	-58057.451	9.837	0.223778	0.228984	0.225912	0.321326	
285000	-57914.358	9.739	0.223778	0.228984	0.225912	0.321326	
286000	-57820.437	9.666	0.223778	0.228984	0.225912	0.321326	
287000	-57787.670	9.748	0.223778	0.228984	0.225912	0.321326	
288000	-57645.811	9.689	0.223778	0.228984	0.225912	0.321326	
289000	-57591.552	9.710	0.223233	0.232246	0.231422	0.313099	
290000	-57521.350	9.709	0.223233	0.232246	0.231422	0.313099	
291000	-57422.583	9.683	0.223233	0.232246	0.231422	0.313099	
292000	-56904.590	9.545	0.223233	0.232246	0.231422	0.313099	
293000	-56694.291	9.497	0.223233	0.232246	0.231422	0.313099	
294000	-56371.860	9.633	0.223233	0.232246	0.231422	0.313099	
295000	-56337.713	9.607	0.221895	0.225134	0.237626	0.315345	
296000	-56157.564	9.622	0.221895	0.225134	0.237626	0.315345	
297000	-56116.719	9.730	0.221895	0.225134	0.237626	0.315345	
298000	-55979.027	9.650	0.221895	0.225134	0.237626	0.315345	
299000	-55892.491	9.576	0.221895	0.225134	0.237626	0.315345	
300000	-55821.934	9.510	0.221895	0.225134	0.237626	0.315345	
301000	-55740.444	9.436	0.221895	0.225134	0.237626	0.315345	
302000	-55670.306	9.308	0.224852	0.225049	0.236794	0.313305	
303000	-55589.617	9.733	0.223601	0.235200	0.233049	0.308151	
304000	-55236.333	9.456	0.223601	0.235200	0.233049	0.308151	
305000	-54955.518	9.320	0.226322	0.228016	0.232870	0.312792	
306000	-54431.020	9.166	0.233323	0.226873	0.223842	0.315962	
307000	-54205.785	9.129	0.221932	0.241621	0.227900	0.308547	
308000	-53534.855	9.095	0.222863	0.237452	0.220368	0.319317	
309000	-53338.626	9.022	0.222863	0.237452	0.220368	0.319317	
310000	-53217.672	8.995	0.222863	0.237452	0.220368	0.319317	
311000	-52937.989	8.985	0.225188	0.230802	0.230625	0.313386	
312000	-52839.787	8.958	0.225188	0.230802	0.230625	0.313386	
313000	-52730.538	8.962	0.225188	0.230802	0.230625	0.313386	
314000	-52627.344	8.860	0.225311	0.233404	0.229544	0.311741	
315000	-52549.658	8.799	0.225311	0.233404	0.229544	0.311741	
316000	-52459.963	8.777	0.225311	0.233404	0.229544	0.311741	
317000	-52432.598	8.717	0.225311	0.233404	0.229544	0.311741	
318000	-52407.722	8.670	0.225311	0.233404	0.229544	0.311741	
319000	-52347.732	8.665	0.225311	0.233404	0.229544	0.311741	
320000	-52307.824	8.631	0.222934	0.236982	0.226249	0.313836	
321000	-52263.636	8.699	0.222934	0.236982	0.226249	0.313836	
322000	-52261.096	8.673	0.221827	0.242377	0.221196	0.314600	
323000	-52250.977	8.660	0.221827	0.242377	0.221196	0.314600	
324000	-52234.160	8.667	0.221827	0.242377	0.221196	0.314600	
325000	-52218.013	8.679	0.221827	0.242377	0.221196	0.314600	
326000	-52164.986	8.568	0.221827	0.242377	0.221196	0.314600	
327000	-52162.734	8.571	0.231427	0.236368	0.228431	0.303774	
328000	-52155.207	8.585	0.222367	0.244641	0.228390	0.304602	
329000	-52137.710	8.569	0.222367	0.244641	0.228390	0.304602	
330000	-52105.103	8.645	0.222367	0.244641	0.228390	0.304602	
331000	-52081.219	8.698	0.231654	0.238741	0.222458	0.307147	
332000	-52011.912	8.707	0.224170	0.234088	0.235001	0.306741	
333000	-51982.389	8.702	0.224170	0.234088	0.235001	0.306741	
334000	-51875.238	8.729	0.224388	0.238886	0.224211	0.312514	
335000	-51856.918	8.723	0.224294	0.236780	0.232334	0.306592	
336000	-51818.396	8.629	0.222586	0.235872	0.230902	0.310639	
337000	-51731.952	8.565	0.222586	0.235872	0.230902	0.310639	
338000	-51691.439	8.568	0.222586	0.235872	0.230902	0.310639	
339000	-51680.456	8.582	0.222586	0.235872	0.230902	0.310639	
340000	-51641.199	8.528	0.224380	0.242059	0.230876	0.302685	
341000	-51607.593	8.488	0.224380	0.242059	0.230876	0.302685	
342000	-51568.741	8.495	0.224380	0.242059	0.230876	0.302685	
343000	-51564.203	8.433	0.224380	0.242059	0.230876	0.302685	
344000	-51501.992	8.385	0.224380	0.242059	0.230876	0.302685	
345000	-51505.052	8.385	0.224380	0.242059	0.230876	0.302685	
346000	-51478.908	8.381	0.224380	0.242059	0.230876	0.302685	
347000	-51494.467	8.389	0.224655	0.239375	0.224684	0.311286	
348000	-51482.165	8.391	0.224655	0.239375	0.224684	0.311286	
349000	-51485.644	8.427	0.224655	0.239375	0.224684	0.311286	
350000	-51490.631	8.452	0.224655	0.239375	0.224684	0.311286	
351000	-51449.225	8.420	0.228911	0.237244	0.234354	0.299491	
352000	-51446.568	8.441	0.226318	0.237902	0.225470	0.310310	
353000	-51450.001	8.486	0.226318	0.237902	0.225470	0.310310	
354000	-51444.551	8.401	0.221757	0.237424	0.227024	0.313795	
355000	-51439.161	8.396	0.218837	0.239976	0.236139	0.305048	
356000	-51442.179	8.383	0.218837	0.239976	0.236139	0.305048	
357000	-51384.839	8.360	0.218837	0.239976	0.236139	0.305048	
358000	-51381.268	8.347	0.229680	0.240715	0.230216	0.299389	
359000	-51366.712	8.281	0.229680	0.240715	0.230216	0.299389	
360000	-51347.332	8.257	0.229680	0.240715	0.230216	0.299389	
361000	-51358.256	8.235	0.228117	0.248954	0.226022	0.296907	
362000	-51335.579	8.196	0.222709	0.242142	0.232558	0.302591	
363000	-51331.005	8.223	0.223259	0.246608	0.226524	0.303609	
364000	-51292.335	8.207	0.223259	0.246608	0.226524	0.303609	
365000	-51300.965	8.225	0.228280	0.244613	0.227115	0.299992	
366000	-51316.806	8.252	0.228280	0.244613	0.227115	0.299992	
367000	-51302.936	8.269	0.228280	0.244613	0.227115	0.299992	
368000	-51298.511	8.260	0.228280	0.244613	0.227115	0.299992	
369000	-51330.068	8.251	0.227882	0.241898	0.235181	0.295039	
370000	-51355.349	8.278	0.227882	0.241898	0.235181	0.295039	
371000	-51319.017	8.226	0.229210	0.246715	0.229401	0.294675	
372000	-51319.827	8.225	0.229210	0.246715	0.229401	0.294675	
373000	-51300.787	8.209	0.229210	0.246715	0.229401	0.294675	
374000	-51300.646	8.185	0.229210	0.246715	0.229401	0.294675	
375000	-51294.312	8.155	0.226036	0.239464	0.236834	0.297665	
376000	-50920.762	8.140	0.226036	0.239464	0.236834	0.297665	
377000	-50890.251	8.114	0.226036	0.239464	0.236834	0.297665	
378000	-50899.307	8.118	0.228017	0.239544	0.229236	0.303202	
379000	-50930.568	8.207	0.228017	0.239544	0.229236	0.303202	
380000	-50890.253	8.165	0.223734	0.242789	0.227485	0.305992	
381000	-50846.944	8.185	0.223734	0.242789	0.227485	0.305992	
382000	-50812.271	8.132	0.223734	0.242789	0.227485	0.305992	
383000	-50779.385	8.091	0.223734	0.242789	0.227485	0.305992	
384000	-50747.057	8.076	0.223734	0.242789	0.227485	0.305992	
385000	-50744.267	8.167	0.223734	0.242789	0.227485	0.305992	
386000	-50725.388	8.206	0.221471	0.246480	0.231965	0.300084	
387000	-50716.778	8.153	0.221471	0.246480	0.231965	0.300084	
388000	-50717.249	8.172	0.221471	0.246480	0.231965	0.300084	
389000	-50709.399	8.181	0.222229	0.236607	0.230866	0.310299	
390000	-50694.392	8.122	0.227805	0.240458	0.224839	0.306898	
391000	-50688.996	8.147	0.229045	0.237334	0.232615	0.301006	
392000	-50683.943	8.092	0.229045	0.237334	0.232615	0.301006	
393000	-50685.830	8.096	0.229045	0.237334	0.232615	0.301006	
394000	-50621.870	8.007	0.229045	0.237334	0.232615	0.301006	
395000	-50610.534	8.005	0.224732	0.245740	0.231324	0.298204	
396000	-50606.116	8.012	0.224732	0.245740	0.231324	0.298204	
397000	-50609.062	8.048	0.224798	0.244141	0.225047	0.306014	
398000	-50631.564	8.041	0.224798	0.244141	0.225047	0.306014	
399000	-50599.089	7.999	0.224798	0.244141	0.225047	0.306014	
400000	-50574.798	7.960	0.230220	0.235552	0.236814	0.297413	
401000	-50559.388	7.884	0.228339	0.249129	0.225165	0.297367	
402000	-50566.306	7.929	0.228339	0.249129	0.225165	0.297367	
403000	-50567.030	7.988	0.226725	0.248177	0.228595	0.296503	
404000	-50583.404	7.979	0.219468	0.247022	0.224964	0.308546	
405000	-50543.743	7.999	0.219468	0.247022	0.224964	0.308546	
406000	-50554.678	8.006	0.219468	0.247022	0.224964	0.308546	
407000	-50567.800	7.976	0.223894	0.240811	0.235997	0.299297	
408000	-50574.930	7.982	0.223894	0.240811	0.235997	0.299297	
409000	-50589.114	7.971	0.223894	0.240811	0.235997	0.299297	
410000	-50567.164	7.986	0.222785	0.245769	0.232948	0.298499	
411000	-50540.602	7.992	0.222785	0.245769	0.232948	0.298499	
412000	-50534.021	7.998	0.222785	0.245769	0.232948	0.298499	
413000	-50520.351	7.985	0.231369	0.242381	0.225676	0.300574	
414000	-50536.082	8.040	0.231369	0.242381	0.225676	0.300574	
415000	-50522.634	8.007	0.230225	0.235357	0.228751	0.305667	
416000	-50524.792	8.027	0.228095	0.240818	0.235788	0.295299	
417000	-50534.980	8.010	0.228095	0.240818	0.235788	0.295299	
418000	-50513.333	7.932	0.228095	0.240818	0.235788	0.295299	
419000	-50504.817	7.925	0.228095	0.240818	0.235788	0.295299	
420000	-50493.636	7.888	0.228095	0.240818	0.235788	0.295299	
421000	-50506.971	7.874	0.228095	0.240818	0.235788	0.295299	
422000	-50515.288	7.922	0.228660	0.249103	0.217026	0.305211	
423000	-50521.187	7.893	0.219087	0.241295	0.228467	0.311151	
424000	-50510.208	7.894	0.226748	0.241838	0.226110	0.305304	
425000	-50505.241	7.914	0.226748	0.241838	0.226110	0.305304	
426000	-50502.436	7.933	0.226748	0.241838	0.226110	0.305304	
427000	-50497.845	7.878	0.227698	0.244432	0.226192	0.301677	
428000	-50495.787	7.903	0.228489	0.242097	0.229848	0.299566	
429000	-50486.480	7.898	0.228489	0.242097	0.229848	0.299566	
430000	-50473.387	7.892	0.228489	0.242097	0.229848	0.299566	
431000	-50490.533	7.888	0.227598	0.238163	0.227256	0.306983	
432000	-50480.029	7.918	0.219716	0.242751	0.235056	0.302476	
433000	-50488.365	7.966	0.219716	0.242751	0.235056	0.302476	
434000	-50497.273	7.953	0.219716	0.242751	0.235056	0.302476	
435000	-50501.239	8.033	0.219716	0.242751	0.235056	0.302476	
436000	-50521.078	7.985	0.226360	0.238318	0.225095	0.310226	
437000	-50507.237	8.000	0.226800	0.241064	0.229418	0.302717	
438000	-50516.429	8.053	0.226800	0.241064	0.229418	0.302717	
439000	-50517.248	7.985	0.226800	0.241064	0.229418	0.302717	
440000	-50506.782	8.005	0.226800	0.241064	0.229418	0.302717	
441000	-50500.458	8.018	0.226800	0.241064	0.229418	0.302717	
442000	-50520.388	8.011	0.226800	0.241064	0.229418	0.302717	
443000	-50508.402	7.991	0.227941	0.233209	0.227961	0.310889	
444000	-50489.656	7.960	0.219593	0.247436	0.231826	0.301145	
445000	-50523.795	7.973	0.225690	0.248013	0.229169	0.297128	
446000	-50500.612	8.046	0.225690	0.248013	0.229169	0.297128	
447000	-50494.001	7.977	0.225690	0.248013	0.229169	0.297128	
448000	-50519.788	7.977	0.220802	0.239950	0.226284	0.312964	
449000	-50530.142	7.973	0.224347	0.245086	0.223527	0.307040	
450000	-50510.849	7.923	0.224347	0.245086	0.223527	0.307040	
451000	-50506.436	7.926	0.224347	0.245086	0.223527	0.307040	
452000	-50495.397	7.911	0.226890	0.250027	0.227084	0.295999	
453000	-50500.441	7.998	0.226890	0.250027	0.227084	0.295999	
454000	-50498.937	8.021	0.228437	0.245918	0.218742	0.306903	
455000	-50491.957	8.023	0.228437	0.245918	0.218742	0.306903	
456000	-50490.364	8.058	0.223070	0.243749	0.226825	0.306356	
457000	-50508.787	8.012	0.229751	0.241422	0.229441	0.299387	
458000	-50527.202	7.965	0.229751	0.241422	0.229441	0.299387	
459000	-50549.328	7.978	0.225737	0.247062	0.224833	0.302367	
460000	-50548.954	7.975	0.225737	0.247062	0.224833	0.302367	
461000	-50538.289	7.980	0.222211	0.252426	0.223274	0.302089	
462000	-50531.018	7.967	0.228874	0.245141	0.222319	0.303666	
463000	-50515.697	7.963	0.239074	0.240750	0.221759	0.298417	
464000	-50524.933	7.948	0.214261	0.247275	0.231465	0.306999	
465000	-50519.685	7.992	0.215893	0.238604	0.234415	0.311088	
466000	-50513.309	7.999	0.218706	0.241582	0.229354	0.310357	
467000	-50515.492	8.044	0.218706	0.241582	0.229354	0.310357	
468000	-50530.677	8.016	0.231686	0.249053	0.218659	0.300602	
469000	-50541.769	8.018	0.231686	0.249053	0.218659	0.300602	
470000	-50527.501	7.997	0.227177	0.234618	0.229405	0.308800	
471000	-50530.301	7.985	0.221763	0.251912	0.232407	0.293918	
472000	-50509.593	7.978	0.238039	0.242786	0.216036	0.303138	
473000	-50513.179	7.974	0.225609	0.244962	0.236039	0.293390	
474000	-50503.839	8.000	0.214071	0.239840	0.232849	0.313240	
475000	-50496.045	7.939	0.225366	0.235488	0.229057	0.310089	
476000	-50500.050	7.902	0.225366	0.235488	0.229057	0.310089	
477000	-50509.401	7.868	0.225366	0.235488	0.229057	0.310089	
478000	-50494.616	7.849	0.225366	0.235488	0.229057	0.310089	
479000	-50488.865	7.891	0.229703	0.244503	0.221621	0.304174	
480000	-50503.019	7.920	0.230275	0.241401	0.229722	0.298602	
481000	-50487.561	7.918	0.230275	0.241401	0.229722	0.298602	
482000	-50457.818	7.881	0.230275	0.241401	0.229722	0.298602	
483000	-50442.529	7.905	0.235142	0.241079	0.220380	0.303399	
484000	-50455.243	7.914	0.234700	0.241848	0.223163	0.300290	
485000	-50459.094	7.913	0.234700	0.241848	0.223163	0.300290	
486000	-50462.916	7.914	0.229380	0.233308	0.230666	0.306646	
487000	-50443.051	7.902	0.230549	0.242641	0.228247	0.298563	
488000	-50442.194	7.882	0.230549	0.242641	0.228247	0.298563	
489000	-50455.479	7.898	0.219615	0.237268	0.234420	0.308697	
490000	-50465.770	7.925	0.232216	0.233469	0.228497	0.305818	
491000	-50462.264	7.952	0.232216	0.233469	0.228497	0.305818	
492000	-50451.916	7.952	0.232216	0.233469	0.228497	0.305818	
493000	-50442.027	7.937	0.230009	0.241524	0.222415	0.306052	
494000	-50459.031	7.975	0.219724	0.244295	0.231569	0.304412	
495000	-50476.592	7.903	0.229407	0.244274	0.227173	0.299146	
496000	-50488.014	7.953	0.222677	0.233082	0.236867	0.307374	
497000	-50491.860	7.958	0.230064	0.238516	0.223748	0.307671	
498000	-50486.718	7.952	0.230064	0.238516	0.223748	0.307671	
499000	-50489.092	7.926	0.230064	0.238516	0.223748	0.307671	
500000	-50489.127	7.915	0.230064	0.238516	0.223748	0.307671	
501000	-50486.150	7.906	0.230064	0.238516	0.223748	0.307671	
502000	-50465.417	7.904	0.229816	0.238457	0.236125	0.295601	
503000	-50490.516	7.898	0.229816	0.238457	0.236125	0.295601	
504000	-50472.437	7.929	0.229816	0.238457	0.236125	0.295601	
505000	-50481.691	7.988	0.232390	0.247314	0.228027	0.292269	
506000	-50467.196	8.013	0.229419	0.248536	0.222158	0.299887	
507000	-50446.239	7.961	0.229419	0.248536	0.222158	0.299887	
508000	-50448.343	7.921	0.222993	0.237930	0.234339	0.304738	
509000	-50460.340	7.885	0.225154	0.240757	0.224774	0.309316	
510000	-50437.890	7.942	0.215486	0.241516	0.238566	0.304432	
511000	-50454.523	7.970	0.230408	0.240713	0.220235	0.308645	
512000	-50429.909	7.945	0.220828	0.249053	0.239745	0.290374	
513000	-50439.518	7.881	0.223673	0.248731	0.234481	0.293116	
514000	-50439.563	7.888	0.218268	0.244460	0.224811	0.312461	
515000	-50431.219	7.884	0.218268	0.244460	0.224811	0.312461	
516000	-50433.385	7.883	0.218268	0.244460	0.224811	0.312461	
517000	-50442.519	7.873	0.230365	0.242623	0.221020	0.305993	
518000	-50466.344	7.888	0.230365	0.242623	0.221020	0.305993	
519000	-50481.239	7.878	0.225765	0.238062	0.224322	0.311851	
520000	-50481.223	7.843	0.227701	0.238192	0.227758	0.306349	
521000	-50464.837	7.871	0.227701	0.238192	0.227758	0.306349	
522000	-50454.867	7.860	0.227701	0.238192	0.227758	0.306349	
523000	-50438.639	7.801	0.227701	0.238192	0.227758	0.306349	
524000	-50432.170	7.789	0.224504	0.244339	0.226418	0.304739	
525000	-50445.250	7.736	0.226899	0.238304	0.231018	0.303779	
526000	-50427.378	7.718	0.226899	0.238304	0.231018	0.303779	
527000	-50434.262	7.763	0.226899	0.238304	0.231018	0.303779	
528000	-50445.020	7.774	0.226899	0.238304	0.231018	0.303779	
529000	-50446.400	7.743	0.220651	0.244821	0.236159	0.298369	
530000	-50426.565	7.702	0.227553	0.234619	0.228703	0.309124	
531000	-50401.207	7.679	0.231281	0.239290	0.224775	0.304654	
532000	-50425.089	7.686	0.231281	0.239290	0.224775	0.304654	
533000	-50407.371	7.686	0.231281	0.239290	0.224775	0.304654	
534000	-50404.960	7.696	0.231281	0.239290	0.224775	0.304654	
535000	-50411.433	7.749	0.231281	0.239290	0.224775	0.304654	
536000	-50426.517	7.790	0.231281	0.239290	0.224775	0.304654	
537000	-50423.130	7.709	0.229672	0.239815	0.232081	0.298431	
538000	-50439.778	7.769	0.229672	0.239815	0.232081	0.298431	
539000	-50452.889	7.784	0.230113	0.240725	0.228361	0.300800	
540000	-50462.677	7.731	0.230113	0.240725	0.228361	0.300800	
541000	-50455.375	7.709	0.230113	0.240725	0.228361	0.300800	
542000	-50434.260	7.763	0.227332	0.243777	0.226937	0.301954	
543000	-50429.528	7.750	0.227332	0.243777	0.226937	0.301954	
544000	-50417.042	7.768	0.227332	0.243777	0.226937	0.301954	
545000	-50429.185	7.762	0.227332	0.243777	0.226937	0.301954	
546000	-50429.698	7.817	0.227332	0.243777	0.226937	0.301954	
547000	-50435.213	7.806	0.227332	0.243777	0.226937	0.301954	
548000	-50428.706	7.735	0.227332	0.243777	0.226937	0.301954	
549000	-50410.990	7.717	0.227332	0.243777	0.226937	0.301954	
550000	-50430.379	7.736	0.227332	0.243777	0.226937	0.301954	
551000	-50412.334	7.728	0.227332	0.243777	0.226937	0.301954	
552000	-50407.317	7.713	0.227332	0.243777	0.226937	0.301954	
553000	-50437.042	7.763	0.227332	0.243777	0.226937	0.301954	
554000	-50436.549	7.752	0.227332	0.243777	0.226937	0.301954	
555000	-50429.518	7.733	0.223298	0.239363	0.237471	0.299867	
556000	-50424.833	7.707	0.229671	0.237137	0.236152	0.297041	
557000	-50429.025	7.655	0.229671	0.237137	0.236152	0.297041	
558000	-50421.064	7.749	0.223612	0.235862	0.231806	0.308721	
559000	-50438.330	7.804	0.226465	0.243696	0.223189	0.306650	
560000	-50431.059	7.791	0.226465	0.243696	0.223189	0.306650	
561000	-50450.684	7.810	0.226465	0.243696	0.223189	0.306650	
562000	-50443.674	7.873	0.226465	0.243696	0.223189	0.306650	
563000	-50440.839	7.924	0.225503	0.240376	0.226703	0.307417	
564000	-50434.514	7.892	0.227149	0.241558	0.225341	0.305952	
565000	-50424.015	7.867	0.227149	0.241558	0.225341	0.305952	
566000	-50440.424	7.919	0.231236	0.244793	0.230203	0.293768	
567000	-50405.903	7.806	0.229635	0.240324	0.237428	0.292613	
568000	-50408.335	7.816	0.214102	0.241325	0.239968	0.304605	
569000	-50425.052	7.846	0.235667	0.237938	0.222809	0.303585	
570000	-50427.442	7.853	0.235667	0.237938	0.222809	0.303585	
571000	-50450.170	7.854	0.233177	0.245830	0.228149	0.292844	
572000	-50446.247	7.861	0.233177	0.245830	0.228149	0.292844	
573000	-50432.749	7.892	0.223355	0.238336	0.236101	0.302209	
574000	-50445.106	7.887	0.223355	0.238336	0.236101	0.302209	
575000	-50427.587	7.878	0.223843	0.246683	0.224977	0.304497	
576000	-50445.579	7.932	0.223843	0.246683	0.224977	0.304497	
577000	-50462.789	7.957	0.226820	0.236650	0.228639	0.307892	
578000	-50453.000	7.962	0.222161	0.238430	0.231050	0.308358	
579000	-50446.575	7.938	0.230847	0.245008	0.221950	0.302195	
580000	-50440.782	7.923	0.230847	0.245008	0.221950	0.302195	
581000	-50434.184	7.954	0.224092	0.245398	0.226366	0.304145	
582000	-50459.127	7.944	0.238206	0.241225	0.223302	0.297267	
583000	-50460.005	7.874	0.225329	0.240545	0.231439	0.302687	
584000	-50469.190	7.843	0.225329	0.240545	0.231439	0.302687	
585000	-50480.905	7.859	0.225329	0.240545	0.231439	0.302687	
586000	-50463.056	7.830	0.225329	0.240545	0.231439	0.302687	
587000	-50455.551	7.824	0.225329	0.240545	0.231439	0.302687	
588000	-50441.295	7.837	0.225329	0.240545	0.231439	0.302687	
589000	-50441.003	7.813	0.225329	0.240545	0.231439	0.302687	
590000	-50432.284	7.802	0.225329	0.240545	0.231439	0.302687	
591000	-50431.974	7.830	0.225329	0.240545	0.231439	0.302687	
592000	-50438.374	7.845	0.222377	0.244522	0.229828	0.303272	
593000	-50463.474	7.899	0.222377	0.244522	0.229828	0.303272	
594000	-50445.871	7.870	0.222377	0.244522	0.229828	0.303272	
595000	-50459.856	7.856	0.222377	0.244522	0.229828	0.303272	
596000	-50457.955	7.863	0.222377	0.244522	0.229828	0.303272	
597000	-50457.771	7.813	0.222377	0.244522	0.229828	0.303272	
598000	-50445.504	7.843	0.222377	0.244522	0.229828	0.303272	
599000	-50457.698	7.802	0.222377	0.244522	0.229828	0.303272	
600000	-50462.412	7.859	0.230158	0.242736	0.236526	0.290580	
601000	-50467.152	7.826	0.232882	0.238348	0.218497	0.310274	
602000	-50452.327	7.826	0.226483	0.248432	0.223089	0.301995	
603000	-50445.419	7.825	0.239955	0.245080	0.222402	0.292564	
604000	-50452.115	7.818	0.220740	0.243487	0.235963	0.299809	
605000	-50478.206	7.819	0.227870	0.235766	0.226707	0.309657	
606000	-50452.768	7.804	0.232719	0.241238	0.220640	0.305403	
607000	-50485.596	7.865	0.234186	0.243310	0.221762	0.300742	
608000	-50483.326	7.926	0.234186	0.243310	0.221762	0.300742	
609000	-50462.563	7.856	0.224591	0.246159	0.231821	0.297428	
610000	-50474.702	7.869	0.224591	0.246159	0.231821	0.297428	
611000	-50462.282	7.865	0.228518	0.236229	0.226000	0.309253	
612000	-50450.280	7.862	0.224742	0.236434	0.235628	0.303196	
613000	-50445.776	7.968	0.222310	0.240342	0.228711	0.308637	
614000	-50438.210	7.974	0.222310	0.240342	0.228711	0.308637	
615000	-50413.717	7.930	0.222310	0.240342	0.228711	0.308637	
616000	-50408.409	7.917	0.222310	0.240342	0.228711	0.308637	
617000	-50418.424	7.930	0.222310	0.240342	0.228711	0.308637	
618000	-50419.587	7.936	0.230657	0.237724	0.226329	0.305290	
619000	-50433.564	7.874	0.230657	0.237724	0.226329	0.305290	
620000	-50428.371	7.899	0.225555	0.236563	0.225865	0.312017	
621000	-50430.285	7.926	0.225555	0.236563	0.225865	0.312017	
622000	-50428.850	7.931	0.222938	0.241021	0.227915	0.308126	
623000	-50417.946	7.916	0.219988	0.243540	0.235391	0.301081	
624000	-50420.049	7.938	0.226350	0.244344	0.233001	0.296305	
625000	-50409.358	7.964	0.226350	0.244344	0.233001	0.296305	
626000	-50413.544	7.980	0.226350	0.244344	0.233001	0.296305	
627000	-50421.174	7.953	0.218711	0.241704	0.230407	0.309178	
628000	-50430.220	7.940	0.227698	0.238719	0.224750	0.308833	
629000	-50448.998	7.970	0.229050	0.235966	0.226824	0.308161	
630000	-50482.127	7.976	0.229050	0.235966	0.226824	0.308161	
631000	-50472.667	8.000	0.229050	0.235966	0.226824	0.308161	
632000	-50487.431	8.038	0.222106	0.240551	0.227514	0.309829	
633000	-50491.590	8.003	0.227413	0.239855	0.226973	0.305759	
634000	-50480.360	7.973	0.223922	0.245237	0.227549	0.303293	
635000	-50481.801	7.972	0.233443	0.236904	0.232904	0.296748	
636000	-50474.410	7.971	0.232206	0.243554	0.221327	0.302913	
637000	-50422.573	8.751	0.227246	0.236065	0.229388	0.307302	
638000	-50383.562	8.624	0.221620	0.233909	0.233095	0.311376	
639000	-50273.277	8.608	0.225383	0.234531	0.231478	0.308608	
640000	-50226.468	8.600	0.225383	0.234531	0.231478	0.308608	
641000	-50143.808	8.504	0.225383	0.234531	0.231478	0.308608	
642000	-50124.735	8.521	0.225383	0.234531	0.231478	0.308608	
643000	-50086.103	8.504	0.225383	0.234531	0.231478	0.308608	
644000	-50006.748	8.541	0.233256	0.230408	0.233076	0.303260	
645000	-49956.611	8.371	0.233256	0.230408	0.233076	0.303260	
646000	-49897.994	8.409	0.226373	0.245567	0.234220	0.293840	
647000	-49853.051	8.395	0.226373	0.245567	0.234220	0.293840	
648000	-49810.655	8.318	0.230870	0.237433	0.228935	0.302762	
649000	-49799.874	8.318	0.229098	0.237941	0.239376	0.293584	
650000	-49776.734	8.327	0.230804	0.247230	0.230734	0.291233	
651000	-49749.194	8.250	0.230804	0.247230	0.230734	0.291233	
652000	-49710.521	8.196	0.228263	0.245040	0.220294	0.306403	
653000	-49679.643	8.132	0.221094	0.242222	0.240201	0.296483	
654000	-49683.633	8.141	0.221094	0.242222	0.240201	0.296483	
655000	-49651.907	8.062	0.221094	0.242222	0.240201	0.296483	
656000	-49646.147	8.003	0.230638	0.235371	0.224952	0.309040	
657000	-49598.914	7.987	0.232145	0.239607	0.229503	0.298744	
658000	-49565.356	7.927	0.232145	0.239607	0.229503	0.298744	
659000	-49537.837	7.910	0.232145	0.239607	0.229503	0.298744	
660000	-49459.915	8.284	0.224237	0.238892	0.226912	0.309959	
661000	-49382.729	8.355	0.218342	0.235134	0.240479	0.306046	
662000	-49313.246	8.446	0.215869	0.231752	0.233950	0.318429	
663000	-49241.569	8.293	0.224754	0.225233	0.236725	0.313288	
664000	-49078.318	8.252	0.238725	0.229144	0.228258	0.303874	
665000	-49040.348	8.222	0.222425	0.234670	0.225416	0.317488	
666000	-48724.411	8.255	0.226279	0.231836	0.242688	0.299197	
667000	-48668.195	8.225	0.225937	0.236936	0.236413	0.300714	
668000	-48659.743	8.161	0.225975	0.233925	0.234034	0.306067	
669000	-48594.886	8.063	0.225975	0.233925	0.234034	0.306067	
670000	-48524.477	8.055	0.232767	0.237971	0.232804	0.296458	
671000	-48472.626	7.985	0.239538	0.239472	0.227306	0.293684	
672000	-48453.295	8.034	0.232734	0.241933	0.233338	0.291996	
673000	-48423.201	8.153	0.233072	0.232978	0.222444	0.311506	
674000	-48326.605	8.057	0.230720	0.231285	0.231262	0.306733	
675000	-48280.358	7.959	0.230720	0.231285	0.231262	0.306733	
676000	-48274.611	7.914	0.228290	0.240902	0.231152	0.299655	
677000	-48272.366	7.944	0.233086	0.238032	0.233349	0.295533	
678000	-48247.841	8.067	0.233086	0.238032	0.233349	0.295533	
679000	-48242.415	8.040	0.233086	0.238032	0.233349	0.295533	
680000	-48230.925	8.062	0.233086	0.238032	0.233349	0.295533	
681000	-48200.816	8.017	0.233068	0.232317	0.230160	0.304455	
682000	-48204.431	8.015	0.227301	0.245776	0.229999	0.296925	
683000	-48190.079	8.007	0.232311	0.234058	0.233252	0.300380	
684000	-48208.127	8.008	0.232311	0.234058	0.233252	0.300380	
685000	-48213.624	8.043	0.232311	0.234058	0.233252	0.300380	
686000	-48210.617	7.976	0.233342	0.236037	0.228012	0.302609	
687000	-48206.001	7.993	0.233342	0.236037	0.228012	0.302609	
688000	-48151.653	7.934	0.233342	0.236037	0.228012	0.302609	
689000	-48156.427	7.916	0.225453	0.239739	0.230439	0.304370	
690000	-48153.748	7.928	0.225453	0.239739	0.230439	0.304370	
691000	-48141.241	7.910	0.225453	0.239739	0.230439	0.304370	
692000	-48114.816	7.850	0.233586	0.230195	0.231332	0.304887	
693000	-48090.224	7.813	0.233586	0.230195	0.231332	0.304887	
694000	-48105.597	7.797	0.232425	0.230057	0.230979	0.306539	
695000	-48109.297	7.761	0.229109	0.237198	0.229182	0.304511	
696000	-48099.045	7.726	0.229109	0.237198	0.229182	0.304511	
697000	-48088.395	7.758	0.229109	0.237198	0.229182	0.304511	
698000	-48093.215	7.724	0.229109	0.237198	0.229182	0.304511	
699000	-48099.255	7.748	0.229109	0.237198	0.229182	0.304511	
700000	-48100.433	7.680	0.229109	0.237198	0.229182	0.304511	
701000	-48104.323	7.589	0.232274	0.236664	0.233358	0.297705	
702000	-48084.945	7.663	0.232274	0.236664	0.233358	0.297705	
703000	-48094.123	7.670	0.232274	0.236664	0.233358	0.297705	
704000	-48097.293	7.606	0.232274	0.236664	0.233358	0.297705	
705000	-48091.748	7.601	0.224874	0.241055	0.229323	0.304748	
706000	-48074.846	7.618	0.223648	0.233494	0.233756	0.309102	
707000	-48064.052	7.629	0.228200	0.242935	0.232449	0.296416	
708000	-48106.672	7.612	0.224083	0.238064	0.230762	0.307091	
709000	-48100.076	7.590	0.224083	0.238064	0.230762	0.307091	
710000	-48076.773	7.531	0.224083	0.238064	0.230762	0.307091	
711000	-48086.653	7.564	0.224083	0.238064	0.230762	0.307091	
712000	-48079.738	7.609	0.224083	0.238064	0.230762	0.307091	
713000	-48076.865	7.581	0.230700	0.230900	0.245002	0.293398	
714000	-48098.054	7.625	0.220337	0.243870	0.233763	0.302030	
715000	-48122.666	7.609	0.233332	0.231524	0.235778	0.299366	
716000	-48098.716	7.614	0.228451	0.240294	0.238529	0.292726	
717000	-48105.085	7.623	0.228451	0.240294	0.238529	0.292726	
718000	-48108.094	7.622	0.224526	0.232396	0.234774	0.308304	
719000	-48103.055	7.587	0.224526	0.232396	0.234774	0.308304	
720000	-48094.863	7.582	0.222738	0.236360	0.238310	0.302593	
721000	-48097.179	7.574	0.222738	0.236360	0.238310	0.302593	
722000	-48086.259	7.560	0.222738	0.236360	0.238310	0.302593	
723000	-48055.809	7.489	0.222738	0.236360	0.238310	0.302593	
724000	-48043.030	7.520	0.222738	0.236360	0.238310	0.302593	
725000	-48060.522	7.596	0.222738	0.236360	0.238310	0.302593	
726000	-48065.400	7.588	0.218359	0.237995	0.235727	0.307919	
727000	-48064.187	7.587	0.220834	0.241922	0.230457	0.306788	
728000	-48056.059	7.532	0.220834	0.241922	0.230457	0.306788	
729000	-48029.165	7.557	0.230075	0.240585	0.228780	0.300560	
730000	-48040.824	7.521	0.231623	0.233292	0.239716	0.295369	
731000	-48053.090	7.582	0.231623	0.233292	0.239716	0.295369	
732000	-48066.644	7.612	0.221545	0.239918	0.235564	0.302973	
733000	-48075.002	7.542	0.221545	0.239918	0.235564	0.302973	
734000	-48072.357	7.542	0.221545	0.239918	0.235564	0.302973	
735000	-48073.938	7.558	0.221545	0.239918	0.235564	0.302973	
736000	-48062.165	7.626	0.230978	0.240588	0.236867	0.291567	
737000	-48054.453	7.597	0.224417	0.241753	0.234332	0.299498	
738000	-48069.454	7.621	0.223543	0.243412	0.231932	0.301113	
739000	-48053.635	7.565	0.223543	0.243412	0.231932	0.301113	
740000	-48038.907	7.592	0.226309	0.236498	0.235920	0.301274	
741000	-48044.370	7.630	0.226309	0.236498	0.235920	0.301274	
742000	-48030.939	7.615	0.226309	0.236498	0.235920	0.301274	
743000	-48025.572	7.661	0.226309	0.236498	0.235920	0.301274	
744000	-48028.193	7.708	0.226309	0.236498	0.235920	0.301274	
745000	-48023.328	7.701	0.226309	0.236498	0.235920	0.301274	
746000	-48001.609	7.658	0.226309	0.236498	0.235920	0.301274	
747000	-48029.361	7.708	0.226309	0.236498	0.235920	0.301274	
748000	-48017.377	7.697	0.226309	0.236498	0.235920	0.301274	
749000	-48019.592	7.707	0.226309	0.236498	0.235920	0.301274	
750000	-48013.962	7.657	0.226309	0.236498	0.235920	0.301274	
751000	-48022.537	7.656	0.226309	0.236498	0.235920	0.301274	
752000	-48021.499	7.651	0.227993	0.233632	0.234493	0.303882	
753000	-48032.484	7.699	0.227993	0.233632	0.234493	0.303882	
754000	-48037.148	7.687	0.227993	0.233632	0.234493	0.303882	
755000	-48029.267	7.656	0.227993	0.233632	0.234493	0.303882	
756000	-48029.955	7.666	0.223637	0.236990	0.236464	0.302909	
757000	-48024.176	7.656	0.223637	0.236990	0.236464	0.302909	
758000	-48054.303	7.669	0.223637	0.236990	0.236464	0.302909	
759000	-48047.440	7.606	0.226858	0.231217	0.239646	0.302279	
760000	-48038.239	7.507	0.226858	0.231217	0.239646	0.302279	
761000	-48025.594	7.552	0.226858	0.231217	0.239646	0.302279	
762000	-48028.337	7.578	0.224946	0.232054	0.235821	0.307179	
763000	-48016.661	7.589	0.224946	0.232054	0.235821	0.307179	
764000	-48022.234	7.632	0.224946	0.232054	0.235821	0.307179	
765000	-48018.200	7.644	0.227502	0.230026	0.236663	0.305809	
766000	-48001.922	7.643	0.225043	0.243200	0.235297	0.296461	
767000	-48010.701	7.696	0.224701	0.242618	0.235472	0.297208	
768000	-48019.160	7.674	0.224701	0.242618	0.235472	0.297208	
769000	-48003.996	7.588	0.224701	0.242618	0.235472	0.297208	
770000	-47995.145	7.628	0.225018	0.231350	0.242576	0.301055	
771000	-47989.950	7.631	0.230226	0.240682	0.234808	0.294283	
772000	-47994.536	7.617	0.219136	0.244228	0.239188	0.297447	
773000	-47977.358	7.723	0.233936	0.235329	0.225411	0.305324	
774000	-47980.197	7.623	0.221214	0.237474	0.232827	0.308485	
775000	-47958.560	7.572	0.221214	0.237474	0.232827	0.308485	
776000	-47941.537	7.510	0.227753	0.237416	0.233750	0.301081	
777000	-47940.565	7.510	0.223530	0.241723	0.232632	0.302116	
778000	-47936.142	7.558	0.231810	0.242326	0.229084	0.296780	
779000	-47913.784	7.662	0.231810	0.242326	0.229084	0.296780	
780000	-47845.134	7.651	0.230408	0.236197	0.231442	0.301953	
781000	-47817.529	7.500	0.235010	0.233864	0.245221	0.285906	
782000	-47796.443	7.448	0.226475	0.243513	0.242142	0.287870	
783000	-47787.861	7.481	0.226475	0.243513	0.242142	0.287870	
784000	-47759.391	7.488	0.229577	0.245598	0.238376	0.286450	
785000	-47745.132	7.470	0.229577	0.245598	0.238376	0.286450	
786000	-47730.628	7.418	0.227743	0.239593	0.238476	0.294188	
787000	-47736.277	7.428	0.227743	0.239593	0.238476	0.294188	
788000	-47660.259	7.433	0.223685	0.243118	0.236261	0.296936	
789000	-47577.116	7.409	0.223685	0.243118	0.236261	0.296936	
790000	-47441.927	7.419	0.223685	0.243118	0.236261	0.296936	
791000	-47329.781	7.435	0.223685	0.243118	0.236261	0.296936	
792000	-47334.892	7.438	0.233938	0.239625	0.239376	0.287061	
793000	-47319.711	7.458	0.227590	0.235049	0.250382	0.286979	
794000	-47324.078	7.407	0.219208	0.253702	0.243274	0.283815	
795000	-47296.737	7.354	0.222160	0.240637	0.250091	0.287112	
796000	-47293.550	7.369	0.226507	0.239018	0.239357	0.295118	
797000	-47290.060	7.309	0.226507	0.239018	0.239357	0.295118	
798000	-47298.435	7.280	0.226507	0.239018	0.239357	0.295118	
799000	-47285.183	7.280	0.225830	0.244676	0.238800	0.290694	
800000	-47292.845	7.322	0.225830	0.244676	0.238800	0.290694	
801000	-47293.525	7.309	0.222888	0.242062	0.243109	0.291942	
802000	-47295.695	7.309	0.222888	0.242062	0.243109	0.291942	
803000	-47301.685	7.308	0.222888	0.242062	0.243109	0.291942	
804000	-47314.327	7.348	0.225691	0.239413	0.238776	0.296120	
805000	-47319.823	7.404	0.225691	0.239413	0.238776	0.296120	
806000	-47304.601	7.382	0.225691	0.239413	0.238776	0.296120	
807000	-47282.344	7.388	0.229307	0.239959	0.242588	0.288146	
808000	-47280.394	7.406	0.229307	0.239959	0.242588	0.288146	
809000	-47285.505	7.425	0.229307	0.239959	0.242588	0.288146	
810000	-47288.500	7.465	0.229307	0.239959	0.242588	0.288146	
811000	-47280.084	7.438	0.229307	0.239959	0.242588	0.288146	
812000	-47288.955	7.483	0.225449	0.241794	0.245381	0.287375	
813000	-47302.289	7.470	0.225449	0.241794	0.245381	0.287375	
814000	-47282.321	7.470	0.225449	0.241794	0.245381	0.287375	
815000	-47270.693	7.489	0.228288	0.241030	0.241322	0.289360	
816000	-47252.125	7.474	0.228288	0.241030	0.241322	0.289360	
817000	-47272.180	7.455	0.221184	0.237850	0.246134	0.294831	
818000	-47283.979	7.514	0.221184	0.237850	0.246134	0.294831	
819000	-47303.520	7.480	0.224606	0.242852	0.235793	0.296750	
820000	-47282.860	7.507	0.224606	0.242852	0.235793	0.296750	
821000	-47270.367	7.432	0.218820	0.242852	0.240433	0.297895	
822000	-47260.859	7.409	0.218820	0.242852	0.240433	0.297895	
823000	-47275.463	7.438	0.218820	0.242852	0.240433	0.297895	
824000	-47278.902	7.384	0.224895	0.245059	0.249623	0.280423	
825000	-47288.383	7.372	0.234526	0.240042	0.238092	0.287340	
826000	-47297.631	7.398	0.234526	0.240042	0.238092	0.287340	
827000	-47286.851	7.344	0.234526	0.240042	0.238092	0.287340	
828000	-47301.441	7.403	0.224471	0.242049	0.239914	0.293566	
829000	-47305.937	7.399	0.222583	0.243801	0.242675	0.290941	
830000	-47315.722	7.451	0.226044	0.246728	0.237207	0.290021	
831000	-47293.803	7.421	0.226044	0.246728	0.237207	0.290021	
832000	-47306.016	7.343	0.223092	0.241586	0.242302	0.293020	
833000	-47297.263	7.363	0.223092	0.241586	0.242302	0.293020	
834000	-47310.979	7.322	0.227238	0.239560	0.240137	0.293066	
835000	-47290.576	7.288	0.227238	0.239560	0.240137	0.293066	
836000	-47292.172	7.284	0.223067	0.245255	0.240329	0.291349	
837000	-47272.516	7.251	0.223067	0.245255	0.240329	0.291349	
838000	-47273.764	7.366	0.228749	0.240654	0.244597	0.286000	
839000	-47287.430	7.370	0.228749	0.240654	0.244597	0.286000	
840000	-47294.702	7.380	0.227112	0.248249	0.239334	0.285304	
841000	-47285.765	7.344	0.226413	0.239081	0.236594	0.297912	
842000	-47298.584	7.371	0.227368	0.244856	0.238053	0.289723	
843000	-47293.580	7.372	0.227368	0.244856	0.238053	0.289723	
844000	-47278.379	7.377	0.227368	0.244856	0.238053	0.289723	
845000	-47280.903	7.322	0.227368	0.244856	0.238053	0.289723	
846000	-47261.993	7.341	0.227368	0.244856	0.238053	0.289723	
847000	-47270.814	7.347	0.227368	0.244856	0.238053	0.289723	
848000	-47281.943	7.334	0.227368	0.244856	0.238053	0.289723	
849000	-47268.495	7.295	0.227368	0.244856	0.238053	0.289723	
850000	-47253.949	7.270	0.227368	0.244856	0.238053	0.289723	
851000	-47252.146	7.264	0.227368	0.244856	0.238053	0.289723	
852000	-47259.462	7.196	0.227368	0.244856	0.238053	0.289723	
853000	-47242.207	7.172	0.231645	0.247867	0.239349	0.281140	
854000	-47245.270	7.197	0.231645	0.247867	0.239349	0.281140	
855000	-47264.911	7.247	0.229913	0.245139	0.240333	0.284614	
856000	-47273.910	7.279	0.229913	0.245139	0.240333	0.284614	
857000	-47283.572	7.196	0.229913	0.245139	0.240333	0.284614	
858000	-47255.080	7.231	0.229913	0.245139	0.240333	0.284614	
859000	-47281.146	7.230	0.229913	0.245139	0.240333	0.284614	
860000	-47266.166	7.182	0.220220	0.246565	0.231624	0.301591	
861000	-47273.973	7.198	0.230446	0.235158	0.237846	0.296550	
862000	-47261.620	7.186	0.222365	0.237897	0.244362	0.295375	
863000	-47268.524	7.223	0.222365	0.237897	0.244362	0.295375	
864000	-47258.762	7.198	0.220451	0.236386	0.249295	0.293868	
865000	-47258.190	7.184	0.220303	0.251031	0.242675	0.285991	
866000	-47254.901	7.196	0.225841	0.245970	0.232230	0.295959	
867000	-47264.027	7.229	0.225841	0.245970	0.232230	0.295959	
868000	-47259.804	7.205	0.229335	0.243370	0.238659	0.288636	
869000	-47252.325	7.127	0.229335	0.243370	0.238659	0.288636	
870000	-47254.698	7.128	0.229335	0.243370	0.238659	0.288636	
871000	-47251.358	7.092	0.228220	0.254709	0.234247	0.282823	
872000	-47260.976	7.104	0.222365	0.242768	0.245310	0.289557	
873000	-47255.196	7.103	0.222365	0.242768	0.245310	0.289557	
874000	-47244.676	7.095	0.235140	0.240382	0.235953	0.288525	
875000	-47242.190	7.069	0.228942	0.250877	0.232120	0.288062	
876000	-47226.835	7.136	0.223468	0.245836	0.246703	0.283993	
877000	-47235.022	7.143	0.223468	0.245836	0.246703	0.283993	
878000	-47215.081	7.156	0.223468	0.245836	0.246703	0.283993	
879000	-47233.568	7.206	0.223810	0.249477	0.236333	0.290380	
880000	-47220.137	7.210	0.223434	0.241962	0.241944	0.292660	
881000	-47220.313	7.212	0.226813	0.234677	0.238430	0.300080	
882000	-47227.234	7.221	0.223196	0.246244	0.239134	0.291426	
883000	-47229.958	7.244	0.223196	0.246244	0.239134	0.291426	
884000	-47214.326	7.211	0.223196	0.246244	0.239134	0.291426	
885000	-47212.943	7.178	0.223196	0.246244	0.239134	0.291426	
886000	-47212.652	7.158	0.222978	0.246684	0.242315	0.288023	
887000	-47228.671	7.157	0.224656	0.240009	0.239687	0.295648	
888000	-47233.573	7.193	0.224656	0.240009	0.239687	0.295648	
889000	-47249.379	7.200	0.224656	0.240009	0.239687	0.295648	
890000	-47252.173	7.186	0.224656	0.240009	0.239687	0.295648	
891000	-47253.843	7.149	0.228473	0.241961	0.245426	0.284139	
892000	-47255.183	7.143	0.228473	0.241961	0.245426	0.284139	
893000	-47263.564	7.188	0.226191	0.243753	0.234728	0.295328	
894000	-47284.487	7.207	0.213365	0.250839	0.242884	0.292912	
895000	-47264.133	7.275	0.233028	0.233662	0.243898	0.289413	
896000	-47243.348	7.327	0.222195	0.238467	0.247457	0.291881	
897000	-47255.875	7.324	0.229432	0.250798	0.228347	0.291423	
898000	-47262.026	7.343	0.229432	0.250798	0.228347	0.291423	
899000	-47264.211	7.332	0.216575	0.247360	0.236578	0.299486	
900000	-47269.800	7.217	0.226257	0.247831	0.241635	0.284278	
901000	-47258.424	7.290	0.226257	0.247831	0.241635	0.284278	
902000	-47263.955	7.299	0.226257	0.247831	0.241635	0.284278	
903000	-47265.035	7.332	0.226257	0.247831	0.241635	0.284278	
904000	-47282.095	7.309	0.225524	0.240445	0.248990	0.285041	
905000	-47283.768	7.302	0.220365	0.258300	0.240863	0.280472	
906000	-47245.094	7.490	0.236987	0.251019	0.234183	0.277812	
907000	-47266.462	7.510	0.232683	0.247320	0.230551	0.289445	
908000	-47268.919	7.503	0.232683	0.247320	0.230551	0.289445	
909000	-47262.649	7.470	0.232683	0.247320	0.230551	0.289445	
910000	-47248.448	7.507	0.232683	0.247320	0.230551	0.289445	
911000	-47241.270	7.488	0.232683	0.247320	0.230551	0.289445	
912000	-47228.832	7.470	0.232683	0.247320	0.230551	0.289445	
913000	-47213.041	7.447	0.232683	0.247320	0.230551	0.289445	
914000	-47186.298	7.457	0.238473	0.246742	0.241662	0.273123	
915000	-47191.159	7.415	0.228694	0.249015	0.234692	0.287599	
916000	-47152.845	7.395	0.236642	0.240386	0.236473	0.286499	
917000	-47148.407	7.367	0.232325	0.238429	0.241478	0.287768	
918000	-47127.444	7.382	0.228801	0.246821	0.242791	0.281587	
919000	-47127.630	7.362	0.228801	0.246821	0.242791	0.281587	
920000	-47148.974	7.349	0.228801	0.246821	0.242791	0.281587	
921000	-47158.269	7.344	0.219012	0.239918	0.248964	0.292107	
922000	-47185.975	7.365	0.225437	0.242968	0.249778	0.281818	
923000	-47199.242	7.413	0.241866	0.235764	0.231146	0.291224	
924000	-47178.555	7.422	0.241018	0.235809	0.233407	0.289765	
925000	-47144.255	7.347	0.228519	0.241623	0.234708	0.295149	
926000	-47157.051	7.379	0.228519	0.241623	0.234708	0.295149	
927000	-47152.704	7.378	0.227256	0.250915	0.236290	0.285539	
928000	-47146.069	7.346	0.227256	0.250915	0.236290	0.285539	
929000	-47164.213	7.389	0.229371	0.247916	0.238079	0.284635	
930000	-47175.763	7.443	0.226996	0.244141	0.243945	0.284918	
931000	-47163.523	7.442	0.226996	0.244141	0.243945	0.284918	
932000	-47153.305	7.413	0.226996	0.244141	0.243945	0.284918	
933000	-47178.826	7.428	0.226996	0.244141	0.243945	0.284918	
934000	-47190.807	7.445	0.237560	0.244654	0.230917	0.286870	
935000	-47174.215	7.417	0.229275	0.237815	0.240048	0.292862	
936000	-47167.466	7.358	0.229275	0.237815	0.240048	0.292862	
937000	-47155.001	7.320	0.226109	0.239429	0.241981	0.292480	
938000	-47141.261	7.306	0.228383	0.242167	0.241000	0.288450	
939000	-47117.164	7.273	0.225115	0.243552	0.235149	0.296184	
940000	-47100.573	7.253	0.230043	0.252867	0.236011	0.281079	
941000	-47104.733	7.239	0.230043	0.252867	0.236011	0.281079	
942000	-47104.963	7.206	0.231492	0.239952	0.243723	0.284833	
943000	-47111.060	7.199	0.232482	0.242465	0.242635	0.282418	
944000	-47103.892	7.175	0.232482	0.242465	0.242635	0.282418	
945000	-47107.994	7.143	0.227667	0.248763	0.243583	0.279987	
946000	-47113.516	7.221	0.227667	0.248763	0.243583	0.279987	
947000	-47101.132	7.181	0.229559	0.243629	0.236132	0.290679	
948000	-47098.703	7.199	0.229559	0.243629	0.236132	0.290679	
949000	-47108.638	7.228	0.229559	0.243629	0.236132	0.290679	
950000	-47110.929	7.203	0.229559	0.243629	0.236132	0.290679	
951000	-47109.009	7.220	0.229559	0.243629	0.236132	0.290679	
952000	-47130.029	7.214	0.225597	0.255537	0.238270	0.280596	
953000	-47132.352	7.214	0.231101	0.246854	0.238050	0.283994	
954000	-47139.702	7.267	0.231101	0.246854	0.238050	0.283994	
955000	-47128.080	7.252	0.233764	0.236854	0.235927	0.293456	
956000	-47122.296	7.160	0.233764	0.236854	0.235927	0.293456	
957000	-47120.111	7.205	0.230263	0.244410	0.234406	0.290920	
958000	-47106.805	7.220	0.230263	0.244410	0.234406	0.290920	
959000	-47136.308	7.265	0.230263	0.244410	0.234406	0.290920	
960000	-47135.701	7.278	0.230263	0.244410	0.234406	0.290920	
961000	-47138.900	7.288	0.230263	0.244410	0.234406	0.290920	
962000	-47138.401	7.308	0.230263	0.244410	0.234406	0.290920	
963000	-47109.925	7.298	0.229537	0.244110	0.238133	0.288220	
964000	-47115.253	7.303	0.229537	0.244110	0.238133	0.288220	
965000	-47119.148	7.297	0.229537	0.244110	0.238133	0.288220	
966000	-47129.042	7.315	0.229537	0.244110	0.238133	0.288220	
967000	-47125.225	7.373	0.229537	0.244110	0.238133	0.288220	
968000	-47104.263	7.378	0.229537	0.244110	0.238133	0.288220	
969000	-47120.391	7.350	0.229537	0.244110	0.238133	0.288220	
970000	-47103.444	7.359	0.231880	0.248002	0.239214	0.280903	
971000	-47117.361	7.342	0.231880	0.248002	0.239214	0.280903	
972000	-47113.846	7.289	0.231880	0.248002	0.239214	0.280903	
973000	-47137.268	7.353	0.233370	0.250242	0.234427	0.281960	
974000	-47124.107	7.315	0.233370	0.250242	0.234427	0.281960	
975000	-47127.076	7.304	0.233370	0.250242	0.234427	0.281960	
976000	-47154.504	7.344	0.229155	0.252506	0.234026	0.284313	
977000	-47130.011	7.329	0.227618	0.240401	0.239266	0.292715	
978000	-47132.469	7.305	0.228815	0.246937	0.241658	0.282591	
979000	-47139.592	7.302	0.228815	0.246937	0.241658	0.282591	
980000	-47159.147	7.370	0.228815	0.246937	0.241658	0.282591	
981000	-47168.990	7.373	0.235483	0.241007	0.237288	0.286223	
982000	-47148.947	7.349	0.235483	0.241007	0.237288	0.286223	
983000	-47163.036	7.359	0.235483	0.241007	0.237288	0.286223	
984000	-47155.151	7.380	0.235483	0.241007	0.237288	0.286223	
985000	-47132.992	7.412	0.227648	0.241796	0.250435	0.280121	
986000	-47118.038	7.380	0.230299	0.238739	0.234809	0.296154	
987000	-47114.989	7.370	0.236916	0.244399	0.237220	0.281465	
988000	-47114.954	7.311	0.238616	0.253596	0.229507	0.278281	
989000	-47109.669	7.323	0.233848	0.240841	0.230313	0.294998	
990000	-47110.661	7.300	0.230879	0.245050	0.229969	0.294102	
991000	-47099.223	7.240	0.230879	0.245050	0.229969	0.294102	
992000	-47087.658	7.220	0.230233	0.252880	0.238022	0.278866	
993000	-47105.059	7.361	0.228226	0.246115	0.231761	0.293898	
994000	-47112.459	7.364	0.228226	0.246115	0.231761	0.293898	
995000	-47113.434	7.360	0.228226	0.246115	0.231761	0.293898	
996000	-47092.121	7.376	0.228226	0.246115	0.231761	0.293898	
997000	-47090.151	7.380	0.230276	0.245197	0.229688	0.294838	
998000	-47109.457	7.356	0.230276	0.245197	0.229688	0.294838	
999000	-47086.383	7.303	0.226241	0.250939	0.245785	0.277035	
1000000	-47080.543	7.256	0.230595	0.238901	0.240839	0.289666	
