[ID: 6942008593]
Gen	LnL	TL	pi(A)	pi(C)	pi(G)	pi(T)	
1	-335684.240	108.467	0.250000	0.250000	0.250000	0.250000	
1000	-314063.695	103.558	0.226735	0.215660	0.212414	0.345191	
2000	-295575.731	100.271	0.226735	0.215660	0.212414	0.345191	
3000	-281808.755	94.931	0.226735	0.215660	0.212414	0.345191	
4000	-268016.211	90.860	0.222667	0.212969	0.222221	0.342142	
5000	-256052.161	86.222	0.222667	0.212969	0.222221	0.342142	
6000	-246762.431	82.339	0.222667	0.212969	0.222221	0.342142	
7000	-236060.775	78.835	0.222667	0.212969	0.222221	0.342142	
8000	-227250.598	75.741	0.222667	0.212969	0.222221	0.342142	
9000	-220098.215	73.005	0.222667	0.212969	0.222221	0.342142	
10000	-214045.148	69.080	0.222667	0.212969	0.222221	0.342142	
11000	-208200.539	66.024	0.222667	0.212969	0.222221	0.342142	
12000	-202371.039	63.232	0.211995	0.216609	0.219823	0.351573	
13000	-197235.953	60.712	0.211995	0.216609	0.219823	0.351573	
14000	-191915.726	56.761	0.218193	0.219821	0.222878	0.339108	
15000	-187490.217	55.334	0.218193	0.219821	0.222878	0.339108	
16000	-182055.428	53.567	0.218193	0.219821	0.222878	0.339108	
17000	-177194.317	51.759	0.218193	0.219821	0.222878	0.339108	
18000	-172871.636	49.816	0.218193	0.219821	0.222878	0.339108	
19000	-167930.190	47.715	0.218193	0.219821	0.222878	0.339108	
20000	-164029.809	46.226	0.218193	0.219821	0.222878	0.339108	
21000	-160215.543	44.752	0.218193	0.219821	0.222878	0.339108	
22000	-156904.074	43.591	0.215180	0.220433	0.224867	0.339520	
23000	-153633.987	41.972	0.215180	0.220433	0.224867	0.339520	
24000	-150760.015	40.868	0.215180	0.220433	0.224867	0.339520	
25000	-147461.264	39.447	0.215180	0.220433	0.224867	0.339520	
26000	-144707.432	38.175	0.215180	0.220433	0.224867	0.339520	
27000	-142260.205	37.205	0.217220	0.224645	0.223970	0.334165	
28000	-139950.073	35.883	0.217220	0.224645	0.223970	0.334165	
29000	-138081.137	34.916	0.217220	0.224645	0.223970	0.334165	
30000	-135791.595	34.190	0.217220	0.224645	0.223970	0.334165	
31000	-132782.353	33.512	0.217220	0.224645	0.223970	0.334165	
32000	-130666.501	32.239	0.213874	0.224575	0.221160	0.340390	
33000	-128707.642	31.250	0.213874	0.224575	0.221160	0.340390	
34000	-126452.869	30.566	0.213874	0.224575	0.221160	0.340390	
35000	-124790.354	30.034	0.213874	0.224575	0.221160	0.340390	
36000	-123067.338	29.350	0.211699	0.226653	0.227250	0.334398	
37000	-121430.259	28.291	0.211699	0.226653	0.227250	0.334398	
38000	-120190.514	27.647	0.211699	0.226653	0.227250	0.334398	
39000	-118596.408	27.098	0.211699	0.226653	0.227250	0.334398	
40000	-117614.604	26.605	0.211699	0.226653	0.227250	0.334398	
41000	-116230.482	26.047	0.215294	0.231605	0.225020	0.328081	
42000	-115018.460	25.450	0.211903	0.224792	0.221112	0.342193	
43000	-113631.639	25.036	0.211903	0.224792	0.221112	0.342193	
44000	-112657.534	24.563	0.211903	0.224792	0.221112	0.342193	
45000	-111707.978	24.213	0.211903	0.224792	0.221112	0.342193	
46000	-110725.291	23.648	0.208963	0.232784	0.227516	0.330737	
47000	-109991.349	23.330	0.208963	0.232784	0.227516	0.330737	
48000	-108917.744	22.723	0.208963	0.232784	0.227516	0.330737	
49000	-107994.597	22.383	0.208963	0.232784	0.227516	0.330737	
50000	-107255.574	22.262	0.208963	0.232784	0.227516	0.330737	
51000	-106533.337	22.003	0.211412	0.236707	0.223378	0.328503	
52000	-105308.863	21.835	0.211412	0.236707	0.223378	0.328503	
53000	-104444.196	21.380	0.211412	0.236707	0.223378	0.328503	
54000	-103159.727	21.187	0.211412	0.236707	0.223378	0.328503	
55000	-102509.421	20.808	0.211412	0.236707	0.223378	0.328503	
56000	-101506.107	20.487	0.211412	0.236707	0.223378	0.328503	
57000	-100662.245	20.073	0.201702	0.236436	0.231240	0.330623	
58000	-99617.243	19.788	0.201702	0.236436	0.231240	0.330623	
59000	-98937.977	19.595	0.201702	0.236436	0.231240	0.330623	
60000	-98123.193	19.443	0.201702	0.236436	0.231240	0.330623	
61000	-97454.995	19.091	0.208514	0.236180	0.230125	0.325181	
62000	-96871.049	19.001	0.208514	0.236180	0.230125	0.325181	
63000	-95506.479	18.789	0.208514	0.236180	0.230125	0.325181	
64000	-94966.521	18.459	0.208514	0.236180	0.230125	0.325181	
65000	-93971.239	18.276	0.208514	0.236180	0.230125	0.325181	
66000	-93197.149	18.178	0.208514	0.236180	0.230125	0.325181	
67000	-92531.739	17.997	0.208514	0.236180	0.230125	0.325181	
68000	-91857.186	17.712	0.207729	0.238655	0.222858	0.330758	
69000	-91372.145	17.714	0.207729	0.238655	0.222858	0.330758	
70000	-90859.505	17.546	0.207729	0.238655	0.222858	0.330758	
71000	-90218.116	17.355	0.207729	0.238655	0.222858	0.330758	
72000	-89401.633	17.297	0.207729	0.238655	0.222858	0.330758	
73000	-89060.553	17.072	0.207729	0.238655	0.222858	0.330758	
74000	-88769.254	17.034	0.207729	0.238655	0.222858	0.330758	
75000	-88162.265	16.911	0.207729	0.238655	0.222858	0.330758	
76000	-87975.028	16.590	0.207729	0.238655	0.222858	0.330758	
77000	-87598.475	16.415	0.207729	0.238655	0.222858	0.330758	
78000	-87282.539	16.340	0.207729	0.238655	0.222858	0.330758	
79000	-86789.106	16.184	0.205458	0.235087	0.221813	0.337642	
80000	-86382.341	15.892	0.205458	0.235087	0.221813	0.337642	
81000	-85728.498	15.758	0.205458	0.235087	0.221813	0.337642	
82000	-84854.756	15.536	0.205458	0.235087	0.221813	0.337642	
83000	-84379.100	15.276	0.203161	0.235032	0.225549	0.336258	
84000	-83911.886	14.955	0.203161	0.235032	0.225549	0.336258	
85000	-83101.130	14.651	0.196251	0.234540	0.234123	0.335086	
86000	-82894.195	14.684	0.196251	0.234540	0.234123	0.335086	
87000	-82486.983	14.710	0.196251	0.234540	0.234123	0.335086	
88000	-82182.416	14.907	0.211056	0.221738	0.230281	0.336924	
89000	-81778.258	14.853	0.202830	0.227178	0.222763	0.347230	
90000	-81293.246	14.751	0.214385	0.237843	0.227252	0.320521	
91000	-81064.011	14.774	0.214385	0.237843	0.227252	0.320521	
92000	-80852.060	14.642	0.202420	0.239236	0.231197	0.327148	
93000	-80503.236	14.455	0.201423	0.231728	0.230061	0.336788	
94000	-80324.848	14.506	0.201423	0.231728	0.230061	0.336788	
95000	-79847.153	14.410	0.202201	0.231126	0.237023	0.329650	
96000	-79617.438	14.379	0.204959	0.231136	0.223067	0.340838	
97000	-79358.823	14.339	0.202521	0.230231	0.235391	0.331857	
98000	-79204.037	14.327	0.207974	0.236658	0.232414	0.322954	
99000	-78763.067	14.279	0.209268	0.238371	0.234360	0.318001	
100000	-78494.728	14.231	0.209268	0.238371	0.234360	0.318001	
101000	-77927.136	14.081	0.202716	0.231184	0.227000	0.339100	
102000	-77576.763	13.990	0.209242	0.228527	0.221370	0.340861	
103000	-77288.738	14.006	0.201808	0.236914	0.233278	0.327999	
104000	-77096.824	13.970	0.217098	0.230229	0.229880	0.322794	
105000	-76644.772	13.788	0.208691	0.237493	0.220973	0.332843	
106000	-76528.312	13.657	0.209998	0.229254	0.233791	0.326957	
107000	-76335.050	13.661	0.209998	0.229254	0.233791	0.326957	
108000	-76029.264	13.537	0.209998	0.229254	0.233791	0.326957	
109000	-75688.713	13.460	0.209998	0.229254	0.233791	0.326957	
110000	-75411.449	13.350	0.209998	0.229254	0.233791	0.326957	
111000	-75126.294	13.300	0.209998	0.229254	0.233791	0.326957	
112000	-74843.979	13.187	0.209998	0.229254	0.233791	0.326957	
113000	-74699.956	13.170	0.209998	0.229254	0.233791	0.326957	
114000	-74397.531	13.036	0.204050	0.232743	0.232708	0.330499	
115000	-73899.675	12.967	0.204050	0.232743	0.232708	0.330499	
116000	-72996.654	12.844	0.205322	0.231610	0.229218	0.333849	
117000	-72662.206	12.804	0.203011	0.227030	0.232916	0.337043	
118000	-72522.813	12.712	0.203011	0.227030	0.232916	0.337043	
119000	-72310.882	12.654	0.203011	0.227030	0.232916	0.337043	
120000	-72234.797	12.548	0.203011	0.227030	0.232916	0.337043	
121000	-71917.672	12.461	0.203011	0.227030	0.232916	0.337043	
122000	-71820.349	12.352	0.203011	0.227030	0.232916	0.337043	
123000	-71553.613	12.417	0.203011	0.227030	0.232916	0.337043	
124000	-71420.871	12.335	0.203011	0.227030	0.232916	0.337043	
125000	-71197.247	12.320	0.203011	0.227030	0.232916	0.337043	
126000	-71080.407	12.313	0.203011	0.227030	0.232916	0.337043	
127000	-71006.261	12.313	0.214039	0.227723	0.236007	0.322230	
128000	-70651.809	12.248	0.214039	0.227723	0.236007	0.322230	
129000	-70546.866	12.270	0.214039	0.227723	0.236007	0.322230	
130000	-70506.559	12.197	0.214039	0.227723	0.236007	0.322230	
131000	-70411.041	12.159	0.208577	0.225161	0.230388	0.335875	
132000	-70397.940	12.261	0.208965	0.228450	0.229862	0.332724	
133000	-70344.570	12.190	0.208965	0.228450	0.229862	0.332724	
134000	-70287.418	12.136	0.208965	0.228450	0.229862	0.332724	
135000	-70194.284	12.080	0.208965	0.228450	0.229862	0.332724	
136000	-70097.830	12.008	0.208965	0.228450	0.229862	0.332724	
137000	-70027.149	12.053	0.208965	0.228450	0.229862	0.332724	
138000	-69941.174	11.976	0.208965	0.228450	0.229862	0.332724	
139000	-69554.816	11.992	0.208965	0.228450	0.229862	0.332724	
140000	-69092.349	11.942	0.208965	0.228450	0.229862	0.332724	
141000	-68809.182	11.860	0.205262	0.227736	0.238616	0.328385	
142000	-68762.851	11.821	0.205262	0.227736	0.238616	0.328385	
143000	-68494.738	11.785	0.199063	0.235268	0.232624	0.333045	
144000	-68414.635	11.639	0.199063	0.235268	0.232624	0.333045	
145000	-68263.863	11.661	0.204706	0.237917	0.232744	0.324633	
146000	-68178.876	11.629	0.204706	0.237917	0.232744	0.324633	
147000	-67844.721	11.679	0.204706	0.237917	0.232744	0.324633	
148000	-67726.173	11.763	0.204706	0.237917	0.232744	0.324633	
149000	-67615.843	11.782	0.213924	0.229570	0.232681	0.323825	
150000	-67510.250	11.617	0.213924	0.229570	0.232681	0.323825	
151000	-67159.148	11.489	0.213924	0.229570	0.232681	0.323825	
152000	-67072.446	11.460	0.213924	0.229570	0.232681	0.323825	
153000	-67037.729	11.540	0.213924	0.229570	0.232681	0.323825	
154000	-66671.424	11.642	0.213924	0.229570	0.232681	0.323825	
155000	-66304.751	11.578	0.213924	0.229570	0.232681	0.323825	
156000	-66102.051	11.633	0.203306	0.237292	0.229991	0.329411	
157000	-65843.431	11.523	0.203306	0.237292	0.229991	0.329411	
158000	-65698.885	11.444	0.203306	0.237292	0.229991	0.329411	
159000	-65324.724	11.507	0.204005	0.228494	0.225391	0.342111	
160000	-64999.668	11.609	0.204005	0.228494	0.225391	0.342111	
161000	-64907.496	11.537	0.213033	0.224883	0.231768	0.330315	
162000	-64741.811	11.540	0.218095	0.233974	0.227644	0.320287	
163000	-64483.921	11.516	0.210880	0.224667	0.229979	0.334473	
164000	-64136.252	11.407	0.210880	0.224667	0.229979	0.334473	
165000	-63979.764	11.380	0.210880	0.224667	0.229979	0.334473	
166000	-63794.676	11.336	0.212413	0.222466	0.230291	0.334831	
167000	-63642.619	11.121	0.206527	0.226543	0.239292	0.327638	
168000	-63567.513	11.133	0.208674	0.225214	0.228968	0.337144	
169000	-63547.309	11.011	0.204459	0.225924	0.231866	0.337751	
170000	-63476.440	10.955	0.203691	0.240204	0.236376	0.319730	
171000	-63380.345	10.916	0.203691	0.240204	0.236376	0.319730	
172000	-63255.827	10.825	0.209759	0.235619	0.235058	0.319563	
173000	-62903.025	10.765	0.209759	0.235619	0.235058	0.319563	
174000	-62717.404	10.725	0.209759	0.235619	0.235058	0.319563	
175000	-62648.018	10.646	0.212019	0.238480	0.237007	0.312494	
176000	-62314.198	10.734	0.214542	0.235849	0.234361	0.315249	
177000	-62205.478	10.623	0.214542	0.235849	0.234361	0.315249	
178000	-62149.097	10.715	0.214542	0.235849	0.234361	0.315249	
179000	-62074.706	10.682	0.214542	0.235849	0.234361	0.315249	
180000	-62074.711	10.662	0.205569	0.228452	0.244865	0.321114	
181000	-62079.302	10.701	0.205569	0.228452	0.244865	0.321114	
182000	-62002.533	10.706	0.208138	0.230514	0.235167	0.326181	
183000	-61960.072	10.697	0.208138	0.230514	0.235167	0.326181	
184000	-61948.913	10.694	0.208138	0.230514	0.235167	0.326181	
185000	-61934.654	10.745	0.208138	0.230514	0.235167	0.326181	
186000	-61868.598	10.739	0.204466	0.239893	0.232253	0.323388	
187000	-61803.681	10.589	0.204466	0.239893	0.232253	0.323388	
188000	-61764.989	10.529	0.204466	0.239893	0.232253	0.323388	
189000	-61724.259	10.378	0.210241	0.240190	0.229233	0.320335	
190000	-61707.948	10.397	0.208221	0.239397	0.229699	0.322683	
191000	-61564.732	10.333	0.208221	0.239397	0.229699	0.322683	
192000	-61505.208	10.258	0.208000	0.239632	0.226984	0.325384	
193000	-61438.890	10.248	0.208000	0.239632	0.226984	0.325384	
194000	-61294.050	10.185	0.208000	0.239632	0.226984	0.325384	
195000	-61044.863	10.117	0.216540	0.244926	0.226297	0.312237	
196000	-60840.095	10.107	0.218932	0.237357	0.230932	0.312780	
197000	-60581.902	10.108	0.218932	0.237357	0.230932	0.312780	
198000	-60479.409	10.100	0.211262	0.232381	0.237120	0.319236	
199000	-60312.923	10.074	0.211262	0.232381	0.237120	0.319236	
200000	-60260.041	10.143	0.211262	0.232381	0.237120	0.319236	
201000	-60195.466	10.114	0.211262	0.232381	0.237120	0.319236	
202000	-60059.942	10.057	0.200908	0.237132	0.237102	0.324858	
203000	-59998.503	10.121	0.204477	0.232145	0.237916	0.325462	
204000	-59953.562	10.083	0.214303	0.230458	0.236514	0.318726	
205000	-59906.892	10.037	0.214303	0.230458	0.236514	0.318726	
206000	-59825.506	10.014	0.214303	0.230458	0.236514	0.318726	
207000	-59498.490	9.999	0.214303	0.230458	0.236514	0.318726	
208000	-59385.959	9.911	0.203875	0.232176	0.235766	0.328183	
209000	-59297.171	9.856	0.203875	0.232176	0.235766	0.328183	
210000	-58988.349	9.837	0.206126	0.234030	0.241127	0.318717	
211000	-58705.276	9.919	0.206126	0.234030	0.241127	0.318717	
212000	-58559.215	9.937	0.215632	0.231766	0.226364	0.326238	
213000	-58451.308	9.964	0.218431	0.238404	0.225159	0.318005	
214000	-58289.417	9.912	0.212337	0.239277	0.231026	0.317361	
215000	-58219.528	9.896	0.206279	0.234566	0.234092	0.325063	
216000	-58146.750	9.937	0.206279	0.234566	0.234092	0.325063	
217000	-58049.280	9.887	0.206279	0.234566	0.234092	0.325063	
218000	-57742.664	9.826	0.206279	0.234566	0.234092	0.325063	
219000	-57689.543	9.745	0.210141	0.244384	0.228286	0.317189	
220000	-57570.652	9.790	0.222643	0.229797	0.236211	0.311350	
221000	-57522.500	9.727	0.217000	0.236084	0.227275	0.319641	
222000	-57441.687	9.653	0.217000	0.236084	0.227275	0.319641	
223000	-57355.306	9.537	0.217000	0.236084	0.227275	0.319641	
224000	-57299.787	9.556	0.218582	0.236485	0.228599	0.316334	
225000	-57242.985	9.604	0.215648	0.233879	0.236535	0.313938	
226000	-57217.972	9.547	0.212506	0.231612	0.239129	0.316753	
227000	-57203.311	9.553	0.212506	0.231612	0.239129	0.316753	
228000	-57182.938	9.530	0.212506	0.231612	0.239129	0.316753	
229000	-57151.770	9.492	0.212506	0.231612	0.239129	0.316753	
230000	-57078.554	9.568	0.220928	0.233309	0.235223	0.310540	
231000	-57061.598	9.485	0.220928	0.233309	0.235223	0.310540	
232000	-57027.084	9.508	0.219496	0.230170	0.237846	0.312488	
233000	-56978.390	9.478	0.216213	0.241600	0.235264	0.306923	
234000	-56963.894	9.467	0.212414	0.226704	0.242492	0.318389	
235000	-56934.859	9.520	0.219193	0.229910	0.242737	0.308160	
236000	-56910.823	9.484	0.219193	0.229910	0.242737	0.308160	
237000	-56919.936	9.485	0.219193	0.229910	0.242737	0.308160	
238000	-56902.765	9.467	0.213190	0.239775	0.236994	0.310042	
239000	-56893.812	9.444	0.213190	0.239775	0.236994	0.310042	
240000	-56897.420	9.452	0.213190	0.239775	0.236994	0.310042	
241000	-56897.970	9.466	0.213190	0.239775	0.236994	0.310042	
242000	-56875.007	9.540	0.213190	0.239775	0.236994	0.310042	
243000	-56858.985	9.567	0.213190	0.239775	0.236994	0.310042	
244000	-56853.947	9.503	0.215312	0.233937	0.232587	0.318164	
245000	-56865.708	9.499	0.215312	0.233937	0.232587	0.318164	
246000	-56810.202	9.375	0.215312	0.233937	0.232587	0.318164	
247000	-56791.354	9.359	0.215312	0.233937	0.232587	0.318164	
248000	-56771.738	9.425	0.215312	0.233937	0.232587	0.318164	
249000	-56764.557	9.426	0.216313	0.240105	0.235517	0.308065	
250000	-56763.565	9.428	0.213735	0.232482	0.246567	0.307216	
251000	-56728.833	9.401	0.220452	0.230242	0.238500	0.310806	
252000	-56735.931	9.393	0.220452	0.230242	0.238500	0.310806	
253000	-56725.673	9.393	0.218175	0.241893	0.236684	0.303249	
254000	-56738.025	9.323	0.218175	0.241893	0.236684	0.303249	
255000	-56755.649	9.313	0.218175	0.241893	0.236684	0.303249	
256000	-56689.839	9.303	0.214013	0.226363	0.240927	0.318698	
257000	-56692.099	9.308	0.214013	0.226363	0.240927	0.318698	
258000	-56683.827	9.291	0.209017	0.236604	0.232915	0.321463	
259000	-56669.460	9.255	0.220601	0.234987	0.233652	0.310760	
260000	-56646.052	9.221	0.210980	0.231055	0.240423	0.317542	
261000	-56610.530	9.236	0.209029	0.240622	0.238061	0.312288	
262000	-56604.781	9.258	0.215238	0.236665	0.236027	0.312070	
263000	-56597.353	9.271	0.215238	0.236665	0.236027	0.312070	
264000	-56589.190	9.265	0.215238	0.236665	0.236027	0.312070	
265000	-56577.718	9.245	0.215238	0.236665	0.236027	0.312070	
266000	-56587.156	9.259	0.215238	0.236665	0.236027	0.312070	
267000	-56589.158	9.183	0.215238	0.236665	0.236027	0.312070	
268000	-56586.590	9.150	0.215238	0.236665	0.236027	0.312070	
269000	-56563.995	9.178	0.215238	0.236665	0.236027	0.312070	
270000	-56561.643	9.147	0.211503	0.238494	0.235006	0.314997	
271000	-56557.699	9.197	0.211503	0.238494	0.235006	0.314997	
272000	-56543.354	9.130	0.211503	0.238494	0.235006	0.314997	
273000	-56539.368	9.162	0.211503	0.238494	0.235006	0.314997	
274000	-56427.320	9.386	0.211503	0.238494	0.235006	0.314997	
275000	-56448.862	9.413	0.211503	0.238494	0.235006	0.314997	
276000	-56446.253	9.463	0.211503	0.238494	0.235006	0.314997	
277000	-56437.948	9.458	0.211503	0.238494	0.235006	0.314997	
278000	-56397.690	9.344	0.215316	0.237658	0.230349	0.316676	
279000	-56392.021	9.364	0.214580	0.241256	0.230427	0.313736	
280000	-56370.959	9.363	0.214580	0.241256	0.230427	0.313736	
281000	-56355.075	9.344	0.210749	0.239023	0.242928	0.307301	
282000	-56368.001	9.375	0.209122	0.232745	0.241995	0.316137	
283000	-56379.710	9.375	0.209122	0.232745	0.241995	0.316137	
284000	-56390.641	9.375	0.222112	0.237574	0.235949	0.304364	
285000	-56381.467	9.372	0.222112	0.237574	0.235949	0.304364	
286000	-56230.579	9.304	0.216016	0.231353	0.236553	0.316077	
287000	-56238.135	9.356	0.218532	0.238462	0.236187	0.306819	
288000	-56211.807	9.343	0.218532	0.238462	0.236187	0.306819	
289000	-56156.588	9.355	0.217805	0.238525	0.232755	0.310915	
290000	-56138.934	9.377	0.217805	0.238525	0.232755	0.310915	
291000	-56116.621	9.394	0.217805	0.238525	0.232755	0.310915	
292000	-56096.187	9.383	0.222613	0.231051	0.236795	0.309541	
293000	-56108.821	9.432	0.222613	0.231051	0.236795	0.309541	
294000	-56098.011	9.414	0.207635	0.236542	0.233434	0.322389	
295000	-56110.072	9.391	0.207635	0.236542	0.233434	0.322389	
296000	-56052.968	9.294	0.219858	0.228898	0.229360	0.321884	
297000	-56033.219	9.318	0.228409	0.236832	0.229565	0.305194	
298000	-56027.852	9.388	0.206803	0.231502	0.240110	0.321585	
299000	-56005.854	9.360	0.216385	0.240457	0.231205	0.311953	
300000	-55979.164	9.379	0.216385	0.240457	0.231205	0.311953	
301000	-55941.834	9.384	0.216385	0.240457	0.231205	0.311953	
302000	-55890.294	9.353	0.216385	0.240457	0.231205	0.311953	
303000	-55872.991	9.309	0.216385	0.240457	0.231205	0.311953	
304000	-55873.081	9.251	0.216385	0.240457	0.231205	0.311953	
305000	-55856.749	9.171	0.216385	0.240457	0.231205	0.311953	
306000	-55853.038	9.211	0.213906	0.237894	0.233871	0.314329	
307000	-55861.135	9.243	0.213906	0.237894	0.233871	0.314329	
308000	-55854.018	9.217	0.213906	0.237894	0.233871	0.314329	
309000	-55836.760	9.201	0.213906	0.237894	0.233871	0.314329	
310000	-55833.476	9.281	0.213420	0.241795	0.225973	0.318813	
311000	-55844.505	9.220	0.222978	0.237552	0.235970	0.303501	
312000	-55855.093	9.251	0.211780	0.244053	0.233295	0.310871	
313000	-55868.794	9.166	0.211780	0.244053	0.233295	0.310871	
314000	-55857.157	9.150	0.211780	0.244053	0.233295	0.310871	
315000	-55876.299	9.137	0.211780	0.244053	0.233295	0.310871	
316000	-55884.045	9.113	0.211226	0.235026	0.242178	0.311570	
317000	-55884.149	9.128	0.222206	0.238530	0.238488	0.300777	
318000	-55871.858	9.196	0.214073	0.237533	0.236998	0.311397	
319000	-55872.228	9.216	0.214073	0.237533	0.236998	0.311397	
320000	-55860.765	9.181	0.214073	0.237533	0.236998	0.311397	
321000	-55851.519	9.200	0.214073	0.237533	0.236998	0.311397	
322000	-55855.974	9.152	0.214073	0.237533	0.236998	0.311397	
323000	-55848.383	9.199	0.214073	0.237533	0.236998	0.311397	
324000	-55838.580	9.113	0.212686	0.237005	0.235883	0.314427	
325000	-55873.703	9.214	0.217804	0.243610	0.227776	0.310809	
326000	-55844.223	9.153	0.217804	0.243610	0.227776	0.310809	
327000	-55828.042	9.126	0.217804	0.243610	0.227776	0.310809	
328000	-55806.943	9.132	0.217804	0.243610	0.227776	0.310809	
329000	-55796.761	9.098	0.212522	0.236962	0.240216	0.310300	
330000	-55800.968	9.123	0.212522	0.236962	0.240216	0.310300	
331000	-55821.062	9.153	0.213883	0.240075	0.236497	0.309545	
332000	-55812.846	9.070	0.213883	0.240075	0.236497	0.309545	
333000	-55797.106	9.076	0.214567	0.236960	0.232181	0.316291	
334000	-55779.560	9.080	0.214567	0.236960	0.232181	0.316291	
335000	-55794.762	9.107	0.214567	0.236960	0.232181	0.316291	
336000	-55788.776	9.153	0.214567	0.236960	0.232181	0.316291	
337000	-55791.680	9.160	0.214567	0.236960	0.232181	0.316291	
338000	-55793.209	9.205	0.218224	0.234492	0.230258	0.317026	
339000	-55791.353	9.185	0.218224	0.234492	0.230258	0.317026	
340000	-55804.100	9.150	0.206426	0.242150	0.232162	0.319262	
341000	-55810.518	9.151	0.206426	0.242150	0.232162	0.319262	
342000	-55800.551	9.112	0.221616	0.238544	0.233155	0.306686	
343000	-55784.922	9.163	0.214703	0.240867	0.234788	0.309643	
344000	-55778.274	9.114	0.215571	0.233811	0.231972	0.318647	
345000	-55791.643	9.122	0.215571	0.233811	0.231972	0.318647	
346000	-55780.522	9.092	0.215571	0.233811	0.231972	0.318647	
347000	-55785.223	9.064	0.212398	0.237420	0.234075	0.316107	
348000	-55769.763	9.013	0.212398	0.237420	0.234075	0.316107	
349000	-55766.326	9.026	0.218179	0.235777	0.236730	0.309315	
350000	-55758.093	8.992	0.212743	0.241934	0.229700	0.315623	
351000	-55754.317	9.038	0.208938	0.240561	0.230835	0.319666	
352000	-55782.949	9.074	0.208938	0.240561	0.230835	0.319666	
353000	-55771.343	9.039	0.219650	0.237804	0.233858	0.308689	
354000	-55763.697	9.083	0.213152	0.232765	0.236304	0.317778	
355000	-55764.307	9.058	0.213152	0.232765	0.236304	0.317778	
356000	-55732.247	9.105	0.213152	0.232765	0.236304	0.317778	
357000	-55751.854	9.075	0.213146	0.235687	0.232669	0.318497	
358000	-55752.535	9.058	0.213146	0.235687	0.232669	0.318497	
359000	-55772.265	9.038	0.213146	0.235687	0.232669	0.318497	
360000	-55788.656	9.050	0.213146	0.235687	0.232669	0.318497	
361000	-55776.141	9.031	0.215842	0.236089	0.229646	0.318423	
362000	-55779.543	9.061	0.215842	0.236089	0.229646	0.318423	
363000	-55787.051	9.020	0.214741	0.240089	0.234793	0.310378	
364000	-55784.020	9.046	0.218701	0.228801	0.233547	0.318952	
365000	-55771.969	8.985	0.218035	0.231989	0.238049	0.311927	
366000	-55774.791	8.986	0.219573	0.240843	0.233833	0.305751	
367000	-55771.117	8.996	0.219706	0.235201	0.239289	0.305804	
368000	-55785.441	9.046	0.219706	0.235201	0.239289	0.305804	
369000	-55788.315	9.113	0.210981	0.240030	0.234026	0.314963	
370000	-55776.086	9.019	0.217617	0.243619	0.233752	0.305012	
371000	-55795.321	8.943	0.215177	0.236732	0.238534	0.309558	
372000	-55810.087	9.009	0.215177	0.236732	0.238534	0.309558	
373000	-55809.616	9.008	0.215177	0.236732	0.238534	0.309558	
374000	-55809.796	9.151	0.215177	0.236732	0.238534	0.309558	
375000	-55804.956	9.178	0.215177	0.236732	0.238534	0.309558	
376000	-55809.705	9.248	0.215177	0.236732	0.238534	0.309558	
377000	-55802.738	9.157	0.215177	0.236732	0.238534	0.309558	
378000	-55798.873	9.170	0.215177	0.236732	0.238534	0.309558	
379000	-55786.573	9.131	0.215177	0.236732	0.238534	0.309558	
380000	-55781.501	9.173	0.215177	0.236732	0.238534	0.309558	
381000	-55769.825	9.155	0.215177	0.236732	0.238534	0.309558	
382000	-55779.061	9.263	0.214680	0.236340	0.234071	0.314909	
383000	-55782.141	9.272	0.214680	0.236340	0.234071	0.314909	
384000	-55808.408	9.269	0.214680	0.236340	0.234071	0.314909	
385000	-55809.113	9.219	0.212415	0.236848	0.234387	0.316350	
386000	-55811.439	9.200	0.212415	0.236848	0.234387	0.316350	
387000	-55806.036	9.144	0.212415	0.236848	0.234387	0.316350	
388000	-55776.961	9.147	0.212415	0.236848	0.234387	0.316350	
389000	-55767.850	9.146	0.212415	0.236848	0.234387	0.316350	
390000	-55763.246	9.111	0.214628	0.242098	0.223157	0.320118	
391000	-55755.477	9.062	0.208915	0.237420	0.233286	0.320380	
392000	-55761.163	9.078	0.215124	0.242737	0.234904	0.307235	
393000	-55747.823	9.064	0.220375	0.237880	0.224888	0.316857	
394000	-55764.125	9.107	0.220375	0.237880	0.224888	0.316857	
395000	-55772.389	9.146	0.213665	0.231761	0.231290	0.323284	
396000	-55777.507	9.190	0.213665	0.231761	0.231290	0.323284	
397000	-55752.055	9.163	0.213665	0.231761	0.231290	0.323284	
398000	-55784.781	9.138	0.217189	0.240492	0.226010	0.316310	
399000	-55792.864	9.174	0.216013	0.239514	0.235002	0.309472	
400000	-55798.985	9.176	0.216013	0.239514	0.235002	0.309472	
401000	-55812.543	9.181	0.216013	0.239514	0.235002	0.309472	
402000	-55796.730	9.207	0.216013	0.239514	0.235002	0.309472	
403000	-55784.134	9.152	0.222746	0.230404	0.232186	0.314664	
404000	-55787.594	9.134	0.223800	0.237441	0.227545	0.311214	
405000	-55800.980	9.192	0.223800	0.237441	0.227545	0.311214	
406000	-55782.752	9.190	0.223800	0.237441	0.227545	0.311214	
407000	-55777.893	9.227	0.218610	0.229408	0.239457	0.312525	
408000	-55773.765	9.220	0.212133	0.241793	0.231092	0.314982	
409000	-55780.729	9.226	0.221881	0.228683	0.233847	0.315589	
410000	-55767.327	9.208	0.217325	0.229752	0.232404	0.320520	
411000	-55783.495	9.277	0.211137	0.228787	0.234218	0.325859	
412000	-55772.180	9.299	0.225813	0.236996	0.233608	0.303583	
413000	-55784.269	9.269	0.215123	0.239225	0.240291	0.305360	
414000	-55786.774	9.250	0.215123	0.239225	0.240291	0.305360	
415000	-55785.052	9.123	0.216041	0.234550	0.228226	0.321184	
416000	-55795.866	9.090	0.216041	0.234550	0.228226	0.321184	
417000	-55793.359	9.096	0.216041	0.234550	0.228226	0.321184	
418000	-55788.288	9.113	0.221206	0.237584	0.232515	0.308696	
419000	-55749.548	9.082	0.218163	0.237001	0.233229	0.311607	
420000	-55731.541	9.093	0.218163	0.237001	0.233229	0.311607	
421000	-55752.215	9.150	0.218163	0.237001	0.233229	0.311607	
422000	-55756.912	9.139	0.218163	0.237001	0.233229	0.311607	
423000	-55742.448	9.169	0.218163	0.237001	0.233229	0.311607	
424000	-55741.079	9.189	0.218163	0.237001	0.233229	0.311607	
425000	-55737.339	9.169	0.218163	0.237001	0.233229	0.311607	
426000	-55734.008	9.159	0.221198	0.229430	0.236032	0.313340	
427000	-55742.897	9.199	0.221198	0.229430	0.236032	0.313340	
428000	-55739.350	9.275	0.222905	0.232566	0.236188	0.308342	
429000	-55741.409	9.205	0.222905	0.232566	0.236188	0.308342	
430000	-55734.812	9.186	0.219456	0.239926	0.239784	0.300834	
431000	-55733.160	9.195	0.213195	0.234837	0.238167	0.313802	
432000	-55702.990	9.146	0.213195	0.234837	0.238167	0.313802	
433000	-55707.470	9.190	0.213195	0.234837	0.238167	0.313802	
434000	-55715.900	9.219	0.221789	0.226765	0.231200	0.320246	
435000	-55714.712	9.272	0.221789	0.226765	0.231200	0.320246	
436000	-55705.213	9.237	0.223904	0.236171	0.232590	0.307336	
437000	-55712.198	9.214	0.220466	0.231707	0.228153	0.319674	
438000	-55710.604	9.200	0.220466	0.231707	0.228153	0.319674	
439000	-55719.551	9.170	0.219126	0.242270	0.233606	0.304998	
440000	-55728.004	9.196	0.219126	0.242270	0.233606	0.304998	
441000	-55740.391	9.201	0.220585	0.238031	0.224366	0.317019	
442000	-55731.284	9.184	0.220585	0.238031	0.224366	0.317019	
443000	-55723.131	9.134	0.220585	0.238031	0.224366	0.317019	
444000	-55718.210	9.153	0.212347	0.233075	0.231102	0.323476	
445000	-55712.410	9.070	0.212347	0.233075	0.231102	0.323476	
446000	-55725.715	9.097	0.209616	0.233019	0.237422	0.319943	
447000	-55737.167	9.088	0.209616	0.233019	0.237422	0.319943	
448000	-55748.884	9.115	0.209616	0.233019	0.237422	0.319943	
449000	-55739.049	9.105	0.215564	0.231411	0.237133	0.315892	
450000	-55743.070	9.104	0.215564	0.231411	0.237133	0.315892	
451000	-55743.215	9.118	0.215564	0.231411	0.237133	0.315892	
452000	-55760.111	9.148	0.222360	0.236748	0.230315	0.310578	
453000	-55746.653	9.092	0.211680	0.238197	0.230693	0.319431	
454000	-55753.576	9.096	0.217855	0.238881	0.237626	0.305637	
455000	-55774.761	9.148	0.207557	0.237439	0.239362	0.315641	
456000	-55775.221	9.095	0.210393	0.237456	0.230750	0.321402	
457000	-55785.661	9.113	0.210393	0.237456	0.230750	0.321402	
458000	-55779.596	9.061	0.216804	0.227035	0.236096	0.320064	
459000	-55771.152	9.063	0.216476	0.240870	0.232117	0.310537	
460000	-55741.592	8.985	0.215549	0.243654	0.231723	0.309074	
461000	-55740.008	8.980	0.215549	0.243654	0.231723	0.309074	
462000	-55719.684	9.013	0.221517	0.239482	0.228954	0.310047	
463000	-55716.882	9.049	0.221517	0.239482	0.228954	0.310047	
464000	-55729.006	8.998	0.221517	0.239482	0.228954	0.310047	
465000	-55757.448	9.091	0.214560	0.239369	0.238115	0.307955	
466000	-55757.692	9.082	0.214560	0.239369	0.238115	0.307955	
467000	-55761.896	9.091	0.221300	0.240928	0.229572	0.308200	
468000	-55755.863	9.121	0.221300	0.240928	0.229572	0.308200	
469000	-55724.924	9.120	0.221300	0.240928	0.229572	0.308200	
470000	-55702.963	9.108	0.221300	0.240928	0.229572	0.308200	
471000	-55728.527	9.183	0.221075	0.240823	0.227662	0.310440	
472000	-55739.589	9.175	0.221075	0.240823	0.227662	0.310440	
473000	-55750.404	9.203	0.221075	0.240823	0.227662	0.310440	
474000	-55751.238	9.196	0.221075	0.240823	0.227662	0.310440	
475000	-55756.884	9.131	0.221075	0.240823	0.227662	0.310440	
476000	-55782.116	9.121	0.221075	0.240823	0.227662	0.310440	
477000	-55769.595	9.103	0.221075	0.240823	0.227662	0.310440	
478000	-55763.788	9.076	0.219343	0.240035	0.229293	0.311329	
479000	-55755.735	9.061	0.219343	0.240035	0.229293	0.311329	
480000	-55777.047	9.127	0.219343	0.240035	0.229293	0.311329	
481000	-55776.978	9.244	0.217455	0.235871	0.234665	0.312010	
482000	-55774.595	9.185	0.217455	0.235871	0.234665	0.312010	
483000	-55767.838	9.202	0.217455	0.235871	0.234665	0.312010	
484000	-55738.694	9.213	0.217455	0.235871	0.234665	0.312010	
485000	-55751.434	9.210	0.217455	0.235871	0.234665	0.312010	
486000	-55745.217	9.196	0.217455	0.235871	0.234665	0.312010	
487000	-55748.939	9.108	0.217455	0.235871	0.234665	0.312010	
488000	-55775.784	9.073	0.220739	0.235897	0.229132	0.314232	
489000	-55763.264	9.101	0.220739	0.235897	0.229132	0.314232	
490000	-55736.962	9.101	0.216628	0.238077	0.238194	0.307101	
491000	-55745.838	9.137	0.218662	0.230850	0.236237	0.314251	
492000	-55747.101	9.238	0.218662	0.230850	0.236237	0.314251	
493000	-55741.817	9.222	0.218662	0.230850	0.236237	0.314251	
494000	-55759.394	9.196	0.218662	0.230850	0.236237	0.314251	
495000	-55742.116	9.174	0.211738	0.232521	0.227907	0.327834	
496000	-55743.366	9.168	0.211738	0.232521	0.227907	0.327834	
497000	-55719.463	9.165	0.211738	0.232521	0.227907	0.327834	
498000	-55715.272	9.144	0.215150	0.234370	0.233849	0.316631	
499000	-55711.838	9.125	0.215150	0.234370	0.233849	0.316631	
500000	-55712.175	9.150	0.215150	0.234370	0.233849	0.316631	
501000	-55723.654	9.130	0.211019	0.233005	0.232199	0.323777	
502000	-55727.279	9.113	0.215769	0.235784	0.229182	0.319265	
503000	-55742.817	9.109	0.221542	0.239388	0.228850	0.310220	
504000	-55716.094	9.069	0.221542	0.239388	0.228850	0.310220	
505000	-55703.647	9.090	0.221542	0.239388	0.228850	0.310220	
506000	-55707.543	9.102	0.221384	0.231656	0.232429	0.314531	
507000	-55710.433	9.169	0.221384	0.231656	0.232429	0.314531	
508000	-55717.914	9.179	0.221384	0.231656	0.232429	0.314531	
509000	-55722.868	9.214	0.221384	0.231656	0.232429	0.314531	
510000	-55729.259	9.236	0.221384	0.231656	0.232429	0.314531	
511000	-55701.422	9.190	0.221384	0.231656	0.232429	0.314531	
512000	-55715.357	9.212	0.213026	0.235837	0.236383	0.314753	
513000	-55719.798	9.204	0.213026	0.235837	0.236383	0.314753	
514000	-55726.635	9.222	0.213026	0.235837	0.236383	0.314753	
515000	-55722.144	9.217	0.213026	0.235837	0.236383	0.314753	
516000	-55735.880	9.214	0.213026	0.235837	0.236383	0.314753	
517000	-55733.580	9.181	0.213026	0.235837	0.236383	0.314753	
518000	-55714.182	9.200	0.218519	0.239917	0.231129	0.310435	
519000	-55715.771	9.172	0.213488	0.234818	0.236449	0.315246	
520000	-55706.239	9.182	0.214525	0.232167	0.240730	0.312579	
521000	-55680.214	9.120	0.214525	0.232167	0.240730	0.312579	
522000	-55702.190	9.115	0.214525	0.232167	0.240730	0.312579	
523000	-55699.031	9.172	0.223383	0.235480	0.230963	0.310174	
524000	-55666.311	9.148	0.223383	0.235480	0.230963	0.310174	
525000	-55672.956	9.234	0.223383	0.235480	0.230963	0.310174	
526000	-55686.392	9.192	0.223383	0.235480	0.230963	0.310174	
527000	-55677.818	9.254	0.223383	0.235480	0.230963	0.310174	
528000	-55693.353	9.335	0.222738	0.238094	0.235503	0.303666	
529000	-55692.999	9.352	0.217622	0.234487	0.234424	0.313467	
530000	-55536.428	9.523	0.225259	0.232349	0.231003	0.311390	
531000	-55376.441	9.619	0.217266	0.241159	0.233842	0.307734	
532000	-55180.045	9.601	0.224463	0.230025	0.235946	0.309567	
533000	-54809.176	9.567	0.224463	0.230025	0.235946	0.309567	
534000	-54644.511	9.564	0.214238	0.236321	0.232629	0.316813	
535000	-54439.999	9.667	0.222919	0.237523	0.236550	0.303008	
536000	-54146.741	9.596	0.222919	0.237523	0.236550	0.303008	
537000	-54081.146	9.483	0.222919	0.237523	0.236550	0.303008	
538000	-53964.578	9.403	0.216382	0.222927	0.240856	0.319835	
539000	-53854.608	9.319	0.220497	0.230136	0.236916	0.312452	
540000	-53803.227	9.300	0.218812	0.236242	0.239721	0.305225	
541000	-53671.194	9.135	0.220152	0.233203	0.236230	0.310415	
542000	-53557.949	8.994	0.220152	0.233203	0.236230	0.310415	
543000	-53531.164	9.104	0.220152	0.233203	0.236230	0.310415	
544000	-53450.453	9.098	0.220152	0.233203	0.236230	0.310415	
545000	-53382.772	9.004	0.220152	0.233203	0.236230	0.310415	
546000	-53326.393	8.927	0.215293	0.231589	0.238335	0.314782	
547000	-53269.557	8.844	0.224715	0.229430	0.237754	0.308101	
548000	-53207.010	8.794	0.221785	0.228564	0.244954	0.304697	
549000	-53179.061	8.747	0.221785	0.228564	0.244954	0.304697	
550000	-53139.996	8.654	0.221785	0.228564	0.244954	0.304697	
551000	-53122.635	8.612	0.212745	0.235639	0.248692	0.302924	
552000	-53093.640	8.568	0.219372	0.232093	0.248033	0.300502	
553000	-53091.837	8.586	0.219372	0.232093	0.248033	0.300502	
554000	-53070.952	8.586	0.228612	0.230656	0.237771	0.302961	
555000	-53078.064	8.613	0.215669	0.241763	0.244421	0.298147	
556000	-53078.130	8.503	0.215669	0.241763	0.244421	0.298147	
557000	-53022.802	8.551	0.215669	0.241763	0.244421	0.298147	
558000	-53008.747	8.548	0.215669	0.241763	0.244421	0.298147	
559000	-52981.742	8.607	0.219652	0.243228	0.240750	0.296371	
560000	-52920.128	8.617	0.219652	0.243228	0.240750	0.296371	
561000	-52895.185	8.628	0.219652	0.243228	0.240750	0.296371	
562000	-52895.725	8.665	0.219652	0.243228	0.240750	0.296371	
563000	-52887.566	8.679	0.222608	0.234808	0.244656	0.297928	
564000	-52893.745	8.748	0.217412	0.241375	0.244971	0.296242	
565000	-52880.067	8.752	0.225076	0.234322	0.237809	0.302794	
566000	-52878.134	8.725	0.225076	0.234322	0.237809	0.302794	
567000	-52874.885	8.739	0.225372	0.237880	0.234514	0.302233	
568000	-52881.569	8.743	0.225372	0.237880	0.234514	0.302233	
569000	-52871.008	8.718	0.225372	0.237880	0.234514	0.302233	
570000	-52862.590	8.660	0.228919	0.236323	0.237297	0.297461	
571000	-52869.427	8.672	0.228919	0.236323	0.237297	0.297461	
572000	-52855.747	8.432	0.223845	0.237290	0.240144	0.298721	
573000	-52849.129	8.417	0.223845	0.237290	0.240144	0.298721	
574000	-52846.750	8.405	0.223845	0.237290	0.240144	0.298721	
575000	-52846.578	8.418	0.223845	0.237290	0.240144	0.298721	
576000	-52819.246	8.409	0.223845	0.237290	0.240144	0.298721	
577000	-52827.918	8.464	0.223845	0.237290	0.240144	0.298721	
578000	-52819.474	8.453	0.223845	0.237290	0.240144	0.298721	
579000	-52797.889	8.405	0.223845	0.237290	0.240144	0.298721	
580000	-52793.660	8.403	0.223845	0.237290	0.240144	0.298721	
581000	-52778.614	8.402	0.227012	0.237485	0.238220	0.297283	
582000	-52775.214	8.397	0.223347	0.240073	0.246093	0.290488	
583000	-52718.574	8.380	0.223347	0.240073	0.246093	0.290488	
584000	-52705.285	8.333	0.223347	0.240073	0.246093	0.290488	
585000	-52700.514	8.334	0.224418	0.230117	0.243182	0.302284	
586000	-52698.170	8.379	0.216859	0.242843	0.249003	0.291296	
587000	-52684.124	8.180	0.227528	0.243903	0.233515	0.295054	
588000	-52687.938	8.222	0.227265	0.237089	0.236001	0.299645	
589000	-52687.925	8.264	0.224157	0.243718	0.236200	0.295925	
590000	-52662.902	8.262	0.224157	0.243718	0.236200	0.295925	
591000	-52658.976	8.323	0.227530	0.236154	0.244163	0.292154	
592000	-52631.317	8.314	0.227530	0.236154	0.244163	0.292154	
593000	-52627.396	8.294	0.234156	0.239129	0.237538	0.289177	
594000	-52617.376	8.295	0.234156	0.239129	0.237538	0.289177	
595000	-52630.693	8.340	0.234156	0.239129	0.237538	0.289177	
596000	-52629.561	8.318	0.220826	0.241542	0.246130	0.291502	
597000	-52637.601	8.362	0.219309	0.236944	0.239514	0.304234	
598000	-52594.708	8.292	0.224117	0.241658	0.242220	0.292006	
599000	-52591.818	8.336	0.224117	0.241658	0.242220	0.292006	
600000	-52585.057	8.339	0.225791	0.245262	0.233314	0.295632	
601000	-52585.506	8.440	0.225791	0.245262	0.233314	0.295632	
602000	-52605.253	8.474	0.232615	0.242268	0.232484	0.292632	
603000	-52597.881	8.418	0.232615	0.242268	0.232484	0.292632	
604000	-52599.025	8.442	0.232615	0.242268	0.232484	0.292632	
605000	-52592.501	8.449	0.226589	0.245798	0.238499	0.289115	
606000	-52573.306	8.496	0.227574	0.236458	0.240469	0.295499	
607000	-52577.033	8.529	0.227574	0.236458	0.240469	0.295499	
608000	-52432.364	8.801	0.221330	0.224322	0.233084	0.321265	
609000	-51983.362	8.848	0.221330	0.224322	0.233084	0.321265	
610000	-51705.238	8.924	0.222786	0.230459	0.223722	0.323033	
611000	-51602.699	8.868	0.230409	0.234823	0.234902	0.299866	
612000	-51510.195	8.900	0.216805	0.239455	0.230198	0.313543	
613000	-51416.829	8.827	0.224278	0.234664	0.235109	0.305948	
614000	-51370.796	8.787	0.223139	0.230230	0.227989	0.318642	
615000	-51308.834	8.758	0.226204	0.232653	0.223076	0.318067	
616000	-51307.595	8.749	0.226204	0.232653	0.223076	0.318067	
617000	-51228.657	8.685	0.226204	0.232653	0.223076	0.318067	
618000	-51169.600	8.643	0.226204	0.232653	0.223076	0.318067	
619000	-51136.573	8.626	0.226204	0.232653	0.223076	0.318067	
620000	-51115.864	8.592	0.223364	0.227402	0.235419	0.313815	
621000	-51025.664	8.522	0.223364	0.227402	0.235419	0.313815	
622000	-51001.021	8.495	0.217554	0.227165	0.235774	0.319507	
623000	-50977.115	8.470	0.220049	0.232419	0.232984	0.314548	
624000	-50913.831	8.508	0.220049	0.232419	0.232984	0.314548	
625000	-50922.284	8.510	0.220049	0.232419	0.232984	0.314548	
626000	-50940.274	8.526	0.220049	0.232419	0.232984	0.314548	
627000	-50919.365	8.487	0.226162	0.233154	0.230034	0.310650	
628000	-50888.114	8.449	0.223004	0.231897	0.230357	0.314742	
629000	-50846.839	8.411	0.223004	0.231897	0.230357	0.314742	
630000	-50815.305	8.363	0.223004	0.231897	0.230357	0.314742	
631000	-50792.011	8.308	0.227118	0.231028	0.234174	0.307680	
632000	-50795.323	8.281	0.227118	0.231028	0.234174	0.307680	
633000	-50786.901	8.218	0.227118	0.231028	0.234174	0.307680	
634000	-50777.617	8.252	0.228124	0.229129	0.237109	0.305638	
635000	-50757.643	8.254	0.219059	0.228694	0.236005	0.316241	
636000	-50783.700	8.255	0.219059	0.228694	0.236005	0.316241	
637000	-50774.860	8.314	0.219059	0.228694	0.236005	0.316241	
638000	-50776.545	8.293	0.219059	0.228694	0.236005	0.316241	
639000	-50764.444	8.268	0.219059	0.228694	0.236005	0.316241	
640000	-50762.751	8.284	0.219059	0.228694	0.236005	0.316241	
641000	-50760.706	8.358	0.219059	0.228694	0.236005	0.316241	
642000	-50739.707	8.318	0.219059	0.228694	0.236005	0.316241	
643000	-50742.419	8.292	0.219059	0.228694	0.236005	0.316241	
644000	-50744.477	8.337	0.219059	0.228694	0.236005	0.316241	
645000	-50725.640	8.314	0.219059	0.228694	0.236005	0.316241	
646000	-50715.933	8.339	0.219059	0.228694	0.236005	0.316241	
647000	-50724.471	8.384	0.219346	0.230304	0.238936	0.311413	
648000	-50718.628	8.400	0.219346	0.230304	0.238936	0.311413	
649000	-50718.486	8.444	0.218561	0.230455	0.238533	0.312452	
650000	-50662.814	8.427	0.218561	0.230455	0.238533	0.312452	
651000	-50558.702	8.441	0.218561	0.230455	0.238533	0.312452	
652000	-50516.513	8.337	0.230215	0.230388	0.231026	0.308371	
653000	-50513.005	8.366	0.230215	0.230388	0.231026	0.308371	
654000	-50380.199	8.338	0.230215	0.230388	0.231026	0.308371	
655000	-50354.099	8.369	0.230215	0.230388	0.231026	0.308371	
656000	-50075.634	8.362	0.218596	0.227918	0.233166	0.320320	
657000	-50016.393	8.260	0.218596	0.227918	0.233166	0.320320	
658000	-49907.328	8.287	0.218596	0.227918	0.233166	0.320320	
659000	-49718.836	8.315	0.223588	0.237589	0.236384	0.302439	
660000	-49689.057	8.229	0.217746	0.233383	0.236906	0.311965	
661000	-49647.181	8.181	0.217746	0.233383	0.236906	0.311965	
662000	-49613.663	8.219	0.217746	0.233383	0.236906	0.311965	
663000	-49575.103	8.208	0.209097	0.237431	0.244211	0.309261	
664000	-49517.819	8.141	0.215570	0.234539	0.241448	0.308442	
665000	-49537.256	8.162	0.215570	0.234539	0.241448	0.308442	
666000	-49467.930	8.119	0.215570	0.234539	0.241448	0.308442	
667000	-49433.764	8.049	0.215570	0.234539	0.241448	0.308442	
668000	-49410.400	8.059	0.215570	0.234539	0.241448	0.308442	
669000	-49413.668	8.037	0.215570	0.234539	0.241448	0.308442	
670000	-49393.319	8.071	0.218084	0.230822	0.242683	0.308411	
671000	-49324.426	8.077	0.218084	0.230822	0.242683	0.308411	
672000	-49340.892	8.181	0.223697	0.232058	0.236502	0.307743	
673000	-49315.793	8.180	0.223697	0.232058	0.236502	0.307743	
674000	-49265.792	8.110	0.223697	0.232058	0.236502	0.307743	
675000	-49268.391	8.107	0.221642	0.232566	0.234779	0.311013	
676000	-49289.232	8.138	0.224680	0.233022	0.235617	0.306682	
677000	-49292.276	8.229	0.224680	0.233022	0.235617	0.306682	
678000	-49286.368	8.205	0.224680	0.233022	0.235617	0.306682	
679000	-49264.688	8.158	0.224680	0.233022	0.235617	0.306682	
680000	-49270.302	8.124	0.214290	0.237243	0.237033	0.311434	
681000	-49275.790	8.145	0.217060	0.233090	0.236626	0.313223	
682000	-49264.208	8.072	0.224250	0.232869	0.230315	0.312566	
683000	-49252.961	8.057	0.224250	0.232869	0.230315	0.312566	
684000	-49239.729	8.059	0.222087	0.231847	0.241266	0.304799	
685000	-49239.398	8.017	0.222087	0.231847	0.241266	0.304799	
686000	-49227.414	7.962	0.222067	0.243352	0.236709	0.297872	
687000	-49226.811	7.953	0.225880	0.228143	0.242941	0.303036	
688000	-49239.271	8.119	0.213831	0.232557	0.240024	0.313588	
689000	-49236.028	8.059	0.221768	0.231661	0.233366	0.313205	
690000	-49213.212	8.001	0.221768	0.231661	0.233366	0.313205	
691000	-49214.223	7.996	0.221768	0.231661	0.233366	0.313205	
692000	-49206.236	8.010	0.221768	0.231661	0.233366	0.313205	
693000	-49216.437	8.050	0.221768	0.231661	0.233366	0.313205	
694000	-49225.210	8.040	0.221768	0.231661	0.233366	0.313205	
695000	-49228.829	8.039	0.221768	0.231661	0.233366	0.313205	
696000	-49207.454	8.093	0.221768	0.231661	0.233366	0.313205	
697000	-49199.700	8.051	0.221768	0.231661	0.233366	0.313205	
698000	-49183.334	8.007	0.221768	0.231661	0.233366	0.313205	
699000	-49186.262	7.974	0.221768	0.231661	0.233366	0.313205	
700000	-49182.453	7.956	0.221768	0.231661	0.233366	0.313205	
701000	-49170.097	8.007	0.221768	0.231661	0.233366	0.313205	
702000	-49154.656	7.970	0.221768	0.231661	0.233366	0.313205	
703000	-49151.651	7.955	0.221768	0.231661	0.233366	0.313205	
704000	-49143.877	8.023	0.221768	0.231661	0.233366	0.313205	
705000	-49127.408	8.001	0.222323	0.236125	0.234724	0.306828	
706000	-49106.891	7.928	0.222323	0.236125	0.234724	0.306828	
707000	-49106.472	7.888	0.222323	0.236125	0.234724	0.306828	
708000	-49114.370	7.856	0.222323	0.236125	0.234724	0.306828	
709000	-49106.180	7.852	0.222323	0.236125	0.234724	0.306828	
710000	-49100.982	7.914	0.217000	0.235089	0.239019	0.308892	
711000	-49075.595	8.017	0.217000	0.235089	0.239019	0.308892	
712000	-49058.699	7.986	0.217000	0.235089	0.239019	0.308892	
713000	-49062.481	7.928	0.230144	0.226887	0.230272	0.312698	
714000	-49069.401	7.914	0.217997	0.243227	0.235697	0.303079	
715000	-49064.115	7.909	0.222457	0.236809	0.229107	0.311626	
716000	-49044.131	7.878	0.219650	0.237795	0.233559	0.308996	
717000	-49060.367	7.883	0.220728	0.242272	0.230600	0.306400	
718000	-49064.336	7.909	0.220728	0.242272	0.230600	0.306400	
719000	-49066.957	7.917	0.220728	0.242272	0.230600	0.306400	
720000	-49079.171	7.894	0.213200	0.230327	0.244492	0.311982	
721000	-49089.287	7.960	0.220228	0.245468	0.237215	0.297089	
722000	-49070.248	7.946	0.215142	0.236107	0.241881	0.306870	
723000	-49058.611	8.014	0.215142	0.236107	0.241881	0.306870	
724000	-49076.450	8.023	0.223924	0.236914	0.228297	0.310865	
725000	-49067.820	8.018	0.223924	0.236914	0.228297	0.310865	
726000	-49086.948	8.087	0.223924	0.236914	0.228297	0.310865	
727000	-49067.198	8.005	0.227457	0.232465	0.235101	0.304976	
728000	-49074.644	7.991	0.212696	0.236816	0.235538	0.314950	
729000	-49080.014	7.977	0.220257	0.236787	0.226326	0.316630	
730000	-49075.357	7.987	0.220257	0.236787	0.226326	0.316630	
731000	-49094.883	8.014	0.222768	0.239192	0.229060	0.308979	
732000	-49082.738	8.013	0.215769	0.228214	0.247163	0.308854	
733000	-49101.609	7.970	0.215437	0.233097	0.238207	0.313259	
734000	-49087.770	7.902	0.215437	0.233097	0.238207	0.313259	
735000	-49091.278	7.890	0.215437	0.233097	0.238207	0.313259	
736000	-49081.446	7.848	0.218411	0.236625	0.238529	0.306434	
737000	-49100.873	7.863	0.226089	0.228375	0.230812	0.314724	
738000	-49097.427	7.870	0.226089	0.228375	0.230812	0.314724	
739000	-49098.247	7.924	0.226089	0.228375	0.230812	0.314724	
740000	-49094.636	7.897	0.216685	0.238325	0.231910	0.313079	
741000	-49093.123	7.931	0.225826	0.229375	0.233924	0.310875	
742000	-49089.019	7.970	0.222818	0.230448	0.242271	0.304462	
743000	-49084.007	7.988	0.216282	0.236917	0.240995	0.305807	
744000	-49091.111	8.038	0.216282	0.236917	0.240995	0.305807	
745000	-49092.856	8.063	0.220341	0.238390	0.235122	0.306147	
746000	-49093.173	8.053	0.220341	0.238390	0.235122	0.306147	
747000	-49104.615	8.042	0.220341	0.238390	0.235122	0.306147	
748000	-49111.156	8.049	0.220341	0.238390	0.235122	0.306147	
749000	-49106.255	8.024	0.216277	0.235840	0.240328	0.307556	
750000	-49096.633	7.980	0.216277	0.235840	0.240328	0.307556	
751000	-49096.235	7.990	0.216277	0.235840	0.240328	0.307556	
752000	-49102.993	7.991	0.216277	0.235840	0.240328	0.307556	
753000	-49110.111	8.000	0.216277	0.235840	0.240328	0.307556	
754000	-49108.028	8.050	0.218443	0.226312	0.238369	0.316876	
755000	-49085.255	7.966	0.217790	0.235374	0.239564	0.307272	
756000	-49111.055	7.921	0.213932	0.233636	0.243840	0.308591	
757000	-49120.806	7.900	0.213932	0.233636	0.243840	0.308591	
758000	-49109.035	7.877	0.217510	0.237427	0.237778	0.307284	
759000	-49109.085	7.900	0.221408	0.241467	0.231306	0.305820	
760000	-49107.968	7.861	0.223228	0.229894	0.229296	0.317582	
761000	-49115.937	7.881	0.223228	0.229894	0.229296	0.317582	
762000	-49084.846	7.845	0.223228	0.229894	0.229296	0.317582	
763000	-49088.525	7.843	0.221320	0.242787	0.231565	0.304329	
764000	-49083.786	7.887	0.221320	0.242787	0.231565	0.304329	
765000	-49107.870	7.890	0.221320	0.242787	0.231565	0.304329	
766000	-49128.199	7.977	0.221320	0.242787	0.231565	0.304329	
767000	-49111.683	7.992	0.222722	0.229971	0.235342	0.311966	
768000	-49114.261	7.981	0.215999	0.242612	0.232708	0.308681	
769000	-49132.021	7.949	0.226916	0.234513	0.233603	0.304969	
770000	-49118.574	7.931	0.212124	0.244216	0.234827	0.308833	
771000	-49115.129	7.928	0.229795	0.231743	0.232545	0.305917	
772000	-49121.003	7.925	0.225366	0.232935	0.237063	0.304637	
773000	-49113.773	7.859	0.225366	0.232935	0.237063	0.304637	
774000	-49083.788	7.858	0.225366	0.232935	0.237063	0.304637	
775000	-49076.265	7.861	0.225366	0.232935	0.237063	0.304637	
776000	-49070.594	7.832	0.225366	0.232935	0.237063	0.304637	
777000	-49068.063	7.894	0.225366	0.232935	0.237063	0.304637	
778000	-49083.521	7.947	0.226863	0.236293	0.233774	0.303071	
779000	-49075.089	7.897	0.216659	0.240998	0.236952	0.305391	
780000	-49103.809	7.878	0.216659	0.240998	0.236952	0.305391	
781000	-49120.178	7.896	0.216659	0.240998	0.236952	0.305391	
782000	-49114.585	7.914	0.225029	0.238833	0.235946	0.300192	
783000	-49084.255	7.857	0.225029	0.238833	0.235946	0.300192	
784000	-49075.891	7.831	0.223929	0.234830	0.233258	0.307983	
785000	-49059.744	7.841	0.223929	0.234830	0.233258	0.307983	
786000	-49069.248	7.912	0.223929	0.234830	0.233258	0.307983	
787000	-49063.515	7.869	0.223929	0.234830	0.233258	0.307983	
788000	-49082.888	7.842	0.223929	0.234830	0.233258	0.307983	
789000	-49064.803	7.899	0.223929	0.234830	0.233258	0.307983	
790000	-49055.416	7.987	0.219902	0.236038	0.230204	0.313856	
791000	-49037.332	7.912	0.219902	0.236038	0.230204	0.313856	
792000	-49040.135	7.864	0.219902	0.236038	0.230204	0.313856	
793000	-49029.646	7.867	0.219902	0.236038	0.230204	0.313856	
794000	-49026.434	7.925	0.219509	0.232535	0.234441	0.313516	
795000	-49031.151	7.909	0.214830	0.239718	0.236163	0.309290	
796000	-49052.393	7.952	0.214830	0.239718	0.236163	0.309290	
797000	-49045.736	7.922	0.214830	0.239718	0.236163	0.309290	
798000	-49042.153	7.914	0.214830	0.239718	0.236163	0.309290	
799000	-49049.656	7.917	0.214830	0.239718	0.236163	0.309290	
800000	-49046.522	7.942	0.214830	0.239718	0.236163	0.309290	
801000	-49030.340	8.026	0.214830	0.239718	0.236163	0.309290	
802000	-49013.145	8.031	0.214830	0.239718	0.236163	0.309290	
803000	-49025.946	8.017	0.214830	0.239718	0.236163	0.309290	
804000	-49020.864	8.032	0.215290	0.239090	0.231321	0.314299	
805000	-49009.290	8.002	0.215290	0.239090	0.231321	0.314299	
806000	-49017.805	7.991	0.215290	0.239090	0.231321	0.314299	
807000	-49021.864	7.956	0.215290	0.239090	0.231321	0.314299	
808000	-49046.044	7.963	0.215152	0.240424	0.237933	0.306491	
809000	-49061.240	7.944	0.218210	0.234182	0.235381	0.312227	
810000	-49066.781	7.918	0.218210	0.234182	0.235381	0.312227	
811000	-49062.719	7.924	0.218210	0.234182	0.235381	0.312227	
812000	-49056.216	7.921	0.218210	0.234182	0.235381	0.312227	
813000	-49060.456	7.984	0.218210	0.234182	0.235381	0.312227	
814000	-49076.638	8.029	0.218210	0.234182	0.235381	0.312227	
815000	-49083.560	7.981	0.218210	0.234182	0.235381	0.312227	
816000	-49073.787	7.954	0.218210	0.234182	0.235381	0.312227	
817000	-49049.030	7.932	0.218210	0.234182	0.235381	0.312227	
818000	-49064.247	7.886	0.219780	0.232640	0.240043	0.307537	
819000	-49063.118	7.837	0.219780	0.232640	0.240043	0.307537	
820000	-49071.855	7.851	0.218749	0.240189	0.235750	0.305313	
821000	-49063.743	7.834	0.218749	0.240189	0.235750	0.305313	
822000	-49054.450	7.748	0.218749	0.240189	0.235750	0.305313	
823000	-49045.155	7.804	0.216807	0.241267	0.235850	0.306076	
824000	-49045.549	7.835	0.216807	0.241267	0.235850	0.306076	
825000	-49008.598	7.826	0.216807	0.241267	0.235850	0.306076	
826000	-49033.079	7.864	0.219066	0.229346	0.231022	0.320566	
827000	-49024.903	7.885	0.226448	0.231997	0.231800	0.309755	
828000	-49046.659	7.902	0.226448	0.231997	0.231800	0.309755	
829000	-49045.797	7.802	0.219916	0.230375	0.234065	0.315643	
830000	-49043.744	7.816	0.222775	0.232669	0.240793	0.303763	
831000	-49033.075	7.897	0.220122	0.237754	0.230386	0.311738	
832000	-49035.389	7.895	0.220122	0.237754	0.230386	0.311738	
833000	-49039.891	7.962	0.220122	0.237754	0.230386	0.311738	
834000	-49052.281	7.988	0.225350	0.229036	0.231267	0.314348	
835000	-49038.572	7.986	0.225350	0.229036	0.231267	0.314348	
836000	-49026.072	7.977	0.225350	0.229036	0.231267	0.314348	
837000	-49011.102	8.016	0.214502	0.238849	0.237148	0.309501	
838000	-49045.419	7.977	0.214502	0.238849	0.237148	0.309501	
839000	-49038.047	7.972	0.214502	0.238849	0.237148	0.309501	
840000	-49019.020	7.939	0.224870	0.232583	0.230973	0.311574	
841000	-49024.815	7.972	0.223942	0.226540	0.235571	0.313947	
842000	-49002.891	7.991	0.219708	0.234897	0.238380	0.307015	
843000	-49012.768	7.921	0.219708	0.234897	0.238380	0.307015	
844000	-49031.048	7.945	0.219708	0.234897	0.238380	0.307015	
845000	-49028.870	7.910	0.220873	0.234155	0.231287	0.313685	
846000	-49031.687	7.917	0.223467	0.231088	0.232792	0.312653	
847000	-49019.775	7.895	0.222620	0.227770	0.236243	0.313366	
848000	-49007.961	7.815	0.222620	0.227770	0.236243	0.313366	
849000	-49021.646	7.814	0.209101	0.243234	0.236490	0.311174	
850000	-49039.428	7.940	0.220834	0.238345	0.238807	0.302015	
851000	-49039.111	7.933	0.220834	0.238345	0.238807	0.302015	
852000	-49048.237	7.873	0.220834	0.238345	0.238807	0.302015	
853000	-49036.695	7.828	0.214189	0.241938	0.236157	0.307716	
854000	-49035.348	7.810	0.214189	0.241938	0.236157	0.307716	
855000	-49034.657	7.844	0.214189	0.241938	0.236157	0.307716	
856000	-49027.054	7.804	0.214189	0.241938	0.236157	0.307716	
857000	-49033.927	7.896	0.214189	0.241938	0.236157	0.307716	
858000	-49041.496	7.861	0.225838	0.241901	0.233561	0.298700	
859000	-49052.614	7.886	0.225838	0.241901	0.233561	0.298700	
860000	-49045.965	7.895	0.225816	0.232788	0.246287	0.295110	
861000	-49044.328	7.937	0.213361	0.236611	0.232381	0.317648	
862000	-49032.928	7.820	0.226007	0.230774	0.238098	0.305121	
863000	-49046.827	7.801	0.223657	0.233594	0.235144	0.307604	
864000	-49037.851	7.855	0.223657	0.233594	0.235144	0.307604	
865000	-49045.879	7.894	0.223657	0.233594	0.235144	0.307604	
866000	-49043.252	7.812	0.223657	0.233594	0.235144	0.307604	
867000	-49063.779	7.880	0.218382	0.232763	0.234489	0.314366	
868000	-49050.162	7.835	0.222349	0.239274	0.234227	0.304150	
869000	-49050.150	7.847	0.215988	0.241276	0.235601	0.307135	
870000	-49049.671	7.850	0.224692	0.232786	0.235702	0.306819	
871000	-49058.347	7.828	0.224692	0.232786	0.235702	0.306819	
872000	-49057.057	7.860	0.224692	0.232786	0.235702	0.306819	
873000	-49069.243	7.832	0.224692	0.232786	0.235702	0.306819	
874000	-49073.900	7.869	0.224692	0.232786	0.235702	0.306819	
875000	-49074.493	7.849	0.224692	0.232786	0.235702	0.306819	
876000	-49084.959	7.842	0.217216	0.237459	0.235131	0.310194	
877000	-49056.939	7.943	0.217216	0.237459	0.235131	0.310194	
878000	-49070.698	7.971	0.217216	0.237459	0.235131	0.310194	
879000	-49054.729	7.938	0.218769	0.242435	0.232073	0.306723	
880000	-49044.681	7.890	0.227209	0.231882	0.235914	0.304995	
881000	-49056.751	7.886	0.217678	0.227751	0.234551	0.320020	
882000	-49040.729	7.952	0.217678	0.227751	0.234551	0.320020	
883000	-49076.529	7.965	0.216956	0.228076	0.231132	0.323836	
884000	-49069.984	7.974	0.216956	0.228076	0.231132	0.323836	
885000	-49047.182	7.926	0.216956	0.228076	0.231132	0.323836	
886000	-49030.587	7.914	0.215069	0.236287	0.236921	0.311724	
887000	-49039.918	7.893	0.223464	0.230224	0.241823	0.304489	
888000	-49028.013	7.778	0.229456	0.233751	0.234656	0.302137	
889000	-48995.435	7.799	0.216478	0.227669	0.237288	0.318564	
890000	-48992.463	7.739	0.224197	0.236238	0.236883	0.302682	
891000	-48992.624	7.744	0.224197	0.236238	0.236883	0.302682	
892000	-48990.110	7.826	0.218676	0.234134	0.235180	0.312010	
893000	-48961.052	7.821	0.218676	0.234134	0.235180	0.312010	
894000	-48966.807	7.862	0.218676	0.234134	0.235180	0.312010	
895000	-48976.422	7.911	0.224505	0.228514	0.233168	0.313813	
896000	-48962.806	7.889	0.224505	0.228514	0.233168	0.313813	
897000	-48944.209	7.826	0.223895	0.232692	0.244476	0.298936	
898000	-48954.422	7.808	0.222346	0.238563	0.230216	0.308875	
899000	-48942.030	7.795	0.222346	0.238563	0.230216	0.308875	
900000	-48925.116	7.750	0.222346	0.238563	0.230216	0.308875	
901000	-48961.157	7.746	0.223630	0.231172	0.241086	0.304112	
902000	-48973.027	7.786	0.221501	0.227416	0.234790	0.316294	
903000	-48978.348	7.821	0.213431	0.239222	0.232938	0.314409	
904000	-48957.921	7.780	0.213431	0.239222	0.232938	0.314409	
905000	-48956.632	7.786	0.223515	0.233650	0.240932	0.301903	
906000	-48977.982	7.800	0.223515	0.233650	0.240932	0.301903	
907000	-48984.640	7.779	0.223515	0.233650	0.240932	0.301903	
908000	-48960.146	7.734	0.226921	0.232487	0.238323	0.302269	
909000	-48979.669	7.732	0.219861	0.240177	0.226900	0.313061	
910000	-48979.065	7.716	0.219300	0.233151	0.235437	0.312111	
911000	-48988.798	7.700	0.220407	0.229348	0.231956	0.318289	
912000	-48997.981	7.750	0.219192	0.234082	0.231382	0.315343	
913000	-48998.704	7.763	0.219192	0.234082	0.231382	0.315343	
914000	-48993.902	7.797	0.218291	0.243559	0.236494	0.301656	
915000	-48987.976	7.807	0.229294	0.231621	0.229277	0.309807	
916000	-49008.930	7.903	0.220358	0.245505	0.230402	0.303736	
917000	-48975.713	7.833	0.216823	0.234031	0.238595	0.310551	
918000	-48967.096	7.861	0.216823	0.234031	0.238595	0.310551	
919000	-48959.611	7.858	0.221809	0.231696	0.234847	0.311648	
920000	-48961.492	7.903	0.224123	0.232459	0.231841	0.311577	
921000	-48973.268	7.865	0.224123	0.232459	0.231841	0.311577	
922000	-48965.925	7.812	0.222857	0.234513	0.237630	0.305001	
923000	-48968.628	7.834	0.214863	0.229245	0.238378	0.317515	
924000	-48969.991	7.863	0.214863	0.229245	0.238378	0.317515	
925000	-48964.946	7.833	0.221595	0.230311	0.246783	0.301311	
926000	-48960.283	7.823	0.221595	0.230311	0.246783	0.301311	
927000	-48972.863	7.766	0.219776	0.230614	0.233200	0.316410	
928000	-48968.680	7.797	0.216405	0.233527	0.240075	0.309994	
929000	-48988.569	7.865	0.216405	0.233527	0.240075	0.309994	
930000	-49003.978	7.871	0.216405	0.233527	0.240075	0.309994	
931000	-49012.264	7.859	0.220218	0.234859	0.240283	0.304640	
932000	-49029.083	7.858	0.220218	0.234859	0.240283	0.304640	
933000	-49060.386	7.872	0.220218	0.234859	0.240283	0.304640	
934000	-49067.957	7.924	0.220218	0.234859	0.240283	0.304640	
935000	-49082.180	7.954	0.220218	0.234859	0.240283	0.304640	
936000	-49063.190	7.932	0.220218	0.234859	0.240283	0.304640	
937000	-49053.524	7.913	0.220218	0.234859	0.240283	0.304640	
938000	-49054.105	7.901	0.225864	0.235360	0.232540	0.306236	
939000	-49051.524	7.918	0.225864	0.235360	0.232540	0.306236	
940000	-49037.128	7.928	0.225864	0.235360	0.232540	0.306236	
941000	-49018.439	7.928	0.226476	0.238577	0.227837	0.307110	
942000	-49006.154	7.960	0.226476	0.238577	0.227837	0.307110	
943000	-49031.165	7.945	0.219852	0.232243	0.243664	0.304241	
944000	-49032.199	7.905	0.219852	0.232243	0.243664	0.304241	
945000	-49038.911	7.904	0.219852	0.232243	0.243664	0.304241	
946000	-49041.287	7.915	0.219852	0.232243	0.243664	0.304241	
947000	-49044.253	7.970	0.219852	0.232243	0.243664	0.304241	
948000	-49023.883	7.961	0.219852	0.232243	0.243664	0.304241	
949000	-49004.758	7.917	0.212251	0.238185	0.245962	0.303601	
950000	-49007.334	7.936	0.221465	0.231499	0.228007	0.319029	
951000	-49016.075	7.913	0.223704	0.231202	0.238262	0.306833	
952000	-49016.040	7.931	0.223704	0.231202	0.238262	0.306833	
953000	-49010.550	7.893	0.223704	0.231202	0.238262	0.306833	
954000	-48997.990	7.839	0.223704	0.231202	0.238262	0.306833	
955000	-48990.235	7.825	0.223704	0.231202	0.238262	0.306833	
956000	-48983.247	7.833	0.220460	0.240793	0.231644	0.307103	
957000	-48868.395	8.249	0.223732	0.234673	0.232366	0.309229	
958000	-48803.065	8.225	0.228092	0.234453	0.237566	0.299890	
959000	-48718.576	8.167	0.228079	0.238578	0.239463	0.293880	
960000	-48670.883	8.093	0.228079	0.238578	0.239463	0.293880	
961000	-48584.771	8.056	0.225933	0.238625	0.233574	0.301869	
962000	-48567.012	8.036	0.224183	0.233729	0.249137	0.292951	
963000	-48516.651	7.999	0.219208	0.243497	0.235649	0.301646	
964000	-48476.126	7.854	0.219208	0.243497	0.235649	0.301646	
965000	-48454.233	7.884	0.219208	0.243497	0.235649	0.301646	
966000	-48431.375	7.788	0.223204	0.240307	0.244498	0.291992	
967000	-48407.746	7.823	0.223204	0.240307	0.244498	0.291992	
968000	-48369.541	7.791	0.223204	0.240307	0.244498	0.291992	
969000	-48402.924	7.825	0.211451	0.238187	0.239235	0.311127	
970000	-48354.227	7.676	0.222057	0.236573	0.246793	0.294576	
971000	-48359.249	7.668	0.222885	0.240400	0.246005	0.290711	
972000	-48347.065	7.703	0.226431	0.238939	0.239514	0.295116	
973000	-48329.349	7.694	0.226431	0.238939	0.239514	0.295116	
974000	-48326.998	7.740	0.220859	0.238179	0.240274	0.300687	
975000	-48314.126	7.761	0.220859	0.238179	0.240274	0.300687	
976000	-48282.556	7.692	0.220859	0.238179	0.240274	0.300687	
977000	-48282.090	7.727	0.220859	0.238179	0.240274	0.300687	
978000	-48282.124	7.762	0.224377	0.236431	0.239003	0.300189	
979000	-48279.215	7.709	0.221503	0.238863	0.239312	0.300321	
980000	-48288.358	7.715	0.218112	0.239839	0.240499	0.301551	
981000	-48311.692	7.720	0.218112	0.239839	0.240499	0.301551	
982000	-48288.853	7.641	0.221217	0.243418	0.236967	0.298399	
983000	-48249.431	7.534	0.221217	0.243418	0.236967	0.298399	
984000	-48245.027	7.627	0.221217	0.243418	0.236967	0.298399	
985000	-48249.494	7.655	0.225441	0.239619	0.239398	0.295542	
986000	-48256.890	7.676	0.214995	0.249794	0.236019	0.299192	
987000	-48237.424	7.676	0.216482	0.251250	0.240793	0.291475	
988000	-48248.772	7.672	0.231648	0.240765	0.241168	0.286419	
989000	-48240.185	7.601	0.231648	0.240765	0.241168	0.286419	
990000	-48235.384	7.618	0.223993	0.234384	0.245411	0.296212	
991000	-48231.943	7.664	0.230740	0.234087	0.238496	0.296677	
992000	-48218.502	7.629	0.222668	0.233849	0.242837	0.300646	
993000	-48212.043	7.650	0.222668	0.233849	0.242837	0.300646	
994000	-48253.720	7.705	0.222668	0.233849	0.242837	0.300646	
995000	-48263.545	7.701	0.229497	0.243267	0.234813	0.292423	
996000	-48235.768	7.655	0.228236	0.239390	0.238250	0.294125	
997000	-48220.502	7.643	0.228236	0.239390	0.238250	0.294125	
998000	-48193.983	7.581	0.228236	0.239390	0.238250	0.294125	
999000	-48190.179	7.562	0.228236	0.239390	0.238250	0.294125	
1000000	-48185.529	7.563	0.228236	0.239390	0.238250	0.294125	
