[ID: 6942008593]
Gen	LnL	TL	pi(A)	pi(C)	pi(G)	pi(T)	
1	-336349.871	108.500	0.250000	0.250000	0.250000	0.250000	
1000	-314589.802	103.692	0.227463	0.201705	0.226474	0.344359	
2000	-296522.185	99.065	0.216398	0.214265	0.216403	0.352934	
3000	-281678.932	92.339	0.213655	0.209560	0.216814	0.359971	
4000	-267937.145	89.267	0.216398	0.214265	0.216403	0.352934	
5000	-256670.682	84.669	0.216398	0.214265	0.216403	0.352934	
6000	-246765.933	81.121	0.216398	0.214265	0.216403	0.352934	
7000	-236985.067	75.410	0.214573	0.216988	0.215672	0.352768	
8000	-229041.310	74.587	0.216398	0.214265	0.216403	0.352934	
9000	-220994.410	71.144	0.216398	0.214265	0.216403	0.352934	
10000	-212945.496	67.696	0.216398	0.214265	0.216403	0.352934	
11000	-205828.264	64.602	0.216398	0.214265	0.216403	0.352934	
12000	-200441.056	62.044	0.217956	0.217165	0.214888	0.349992	
13000	-194436.301	59.526	0.217956	0.217165	0.214888	0.349992	
14000	-190133.835	57.494	0.217956	0.217165	0.214888	0.349992	
15000	-185703.472	54.515	0.215084	0.224571	0.215975	0.344370	
16000	-181835.723	51.973	0.218004	0.218155	0.217741	0.346101	
17000	-176961.274	50.004	0.216825	0.221375	0.216010	0.345789	
18000	-172500.171	48.882	0.214953	0.217988	0.223672	0.343387	
19000	-167998.865	47.001	0.214953	0.217988	0.223672	0.343387	
20000	-164210.749	45.592	0.215401	0.218028	0.226262	0.340308	
21000	-161198.246	44.486	0.214810	0.221110	0.222900	0.341180	
22000	-157540.478	42.531	0.217335	0.220063	0.221752	0.340850	
23000	-154418.923	41.190	0.217335	0.220063	0.221752	0.340850	
24000	-150523.594	39.884	0.217335	0.220063	0.221752	0.340850	
25000	-147269.610	38.869	0.217335	0.220063	0.221752	0.340850	
26000	-144315.524	37.660	0.217335	0.220063	0.221752	0.340850	
27000	-142107.449	36.220	0.217335	0.220063	0.221752	0.340850	
28000	-139325.735	34.876	0.217335	0.220063	0.221752	0.340850	
29000	-137549.351	33.755	0.207006	0.227980	0.221944	0.343070	
30000	-135475.184	32.693	0.207006	0.227980	0.221944	0.343070	
31000	-133360.733	32.094	0.207006	0.227980	0.221944	0.343070	
32000	-131886.801	31.224	0.206806	0.231628	0.227070	0.334496	
33000	-130675.394	30.690	0.206806	0.231628	0.227070	0.334496	
34000	-128558.491	30.084	0.206806	0.231628	0.227070	0.334496	
35000	-126981.565	29.362	0.206806	0.231628	0.227070	0.334496	
36000	-125427.779	28.563	0.216675	0.234387	0.226786	0.322152	
37000	-123668.662	27.712	0.216675	0.234387	0.226786	0.322152	
38000	-122067.230	26.877	0.211701	0.236506	0.229694	0.322100	
39000	-121225.905	26.261	0.200734	0.238175	0.234428	0.326662	
40000	-119973.239	25.991	0.200734	0.238175	0.234428	0.326662	
41000	-118949.759	25.713	0.200734	0.238175	0.234428	0.326662	
42000	-118197.868	25.345	0.200734	0.238175	0.234428	0.326662	
43000	-117153.404	24.918	0.200734	0.238175	0.234428	0.326662	
44000	-116463.883	24.405	0.200734	0.238175	0.234428	0.326662	
45000	-115313.095	23.744	0.200734	0.238175	0.234428	0.326662	
46000	-114527.984	23.306	0.200734	0.238175	0.234428	0.326662	
47000	-113817.370	22.964	0.200734	0.238175	0.234428	0.326662	
48000	-113373.550	22.703	0.200734	0.238175	0.234428	0.326662	
49000	-112556.861	22.553	0.200734	0.238175	0.234428	0.326662	
50000	-111199.971	22.333	0.205146	0.239802	0.225582	0.329469	
51000	-110391.109	22.188	0.206883	0.234729	0.226456	0.331931	
52000	-108873.178	21.988	0.206883	0.234729	0.226456	0.331931	
53000	-107936.484	21.818	0.203661	0.237109	0.225393	0.333837	
54000	-106810.337	21.572	0.209117	0.234496	0.229201	0.327186	
55000	-106122.151	21.291	0.209117	0.234496	0.229201	0.327186	
56000	-104805.869	21.066	0.209117	0.234496	0.229201	0.327186	
57000	-104238.200	20.656	0.209117	0.234496	0.229201	0.327186	
58000	-103270.675	20.208	0.209117	0.234496	0.229201	0.327186	
59000	-102891.601	19.890	0.209117	0.234496	0.229201	0.327186	
60000	-102238.413	19.715	0.209117	0.234496	0.229201	0.327186	
61000	-101782.129	19.492	0.211542	0.236111	0.224014	0.328333	
62000	-101478.039	19.349	0.210440	0.235983	0.224132	0.329445	
63000	-101221.146	19.398	0.208103	0.242414	0.230005	0.319478	
64000	-100761.468	19.489	0.208103	0.242414	0.230005	0.319478	
65000	-100367.990	19.196	0.208103	0.242414	0.230005	0.319478	
66000	-100028.978	19.086	0.208103	0.242414	0.230005	0.319478	
67000	-99718.475	18.981	0.208103	0.242414	0.230005	0.319478	
68000	-99128.507	18.872	0.208103	0.242414	0.230005	0.319478	
69000	-98747.035	18.872	0.208103	0.242414	0.230005	0.319478	
70000	-98366.156	18.667	0.208103	0.242414	0.230005	0.319478	
71000	-98103.701	18.502	0.208103	0.242414	0.230005	0.319478	
72000	-97753.947	18.426	0.208103	0.242414	0.230005	0.319478	
73000	-97430.866	18.203	0.208103	0.242414	0.230005	0.319478	
74000	-97081.737	18.154	0.208103	0.242414	0.230005	0.319478	
75000	-96114.365	17.819	0.208103	0.242414	0.230005	0.319478	
76000	-95132.345	17.594	0.208103	0.242414	0.230005	0.319478	
77000	-94647.777	17.522	0.208103	0.242414	0.230005	0.319478	
78000	-94146.330	17.369	0.208103	0.242414	0.230005	0.319478	
79000	-93723.644	17.205	0.206024	0.235815	0.235983	0.322178	
80000	-93499.047	16.999	0.206024	0.235815	0.235983	0.322178	
81000	-93255.174	16.855	0.206221	0.241244	0.224428	0.328107	
82000	-93151.000	16.857	0.206221	0.241244	0.224428	0.328107	
83000	-92551.356	17.057	0.209333	0.239861	0.235848	0.314958	
84000	-91614.437	16.878	0.209333	0.239861	0.235848	0.314958	
85000	-90714.046	16.590	0.209333	0.239861	0.235848	0.314958	
86000	-89776.711	16.493	0.209333	0.239861	0.235848	0.314958	
87000	-89067.775	16.384	0.209333	0.239861	0.235848	0.314958	
88000	-88293.317	16.212	0.209333	0.239861	0.235848	0.314958	
89000	-87955.053	16.140	0.209333	0.239861	0.235848	0.314958	
90000	-87467.725	16.014	0.209333	0.239861	0.235848	0.314958	
91000	-87056.486	15.830	0.209333	0.239861	0.235848	0.314958	
92000	-86519.460	15.697	0.211890	0.245009	0.231910	0.311191	
93000	-85998.296	15.639	0.211890	0.245009	0.231910	0.311191	
94000	-85692.662	15.585	0.211890	0.245009	0.231910	0.311191	
95000	-85378.625	15.351	0.210613	0.239651	0.235025	0.314711	
96000	-85156.921	15.372	0.210613	0.239651	0.235025	0.314711	
97000	-84835.907	15.269	0.205434	0.242791	0.241330	0.310446	
98000	-84550.959	15.172	0.215860	0.244448	0.232087	0.307606	
99000	-84252.067	15.133	0.215860	0.244448	0.232087	0.307606	
100000	-83806.293	14.988	0.215860	0.244448	0.232087	0.307606	
101000	-83135.231	14.939	0.215860	0.244448	0.232087	0.307606	
102000	-82546.511	14.823	0.215860	0.244448	0.232087	0.307606	
103000	-82337.111	14.520	0.215860	0.244448	0.232087	0.307606	
104000	-82120.110	14.606	0.217019	0.243459	0.234791	0.304731	
105000	-81901.356	14.431	0.217019	0.243459	0.234791	0.304731	
106000	-81400.234	14.416	0.217019	0.243459	0.234791	0.304731	
107000	-81237.099	14.304	0.217019	0.243459	0.234791	0.304731	
108000	-81125.027	14.290	0.218208	0.248336	0.237903	0.295553	
109000	-80707.981	14.228	0.208406	0.242761	0.241531	0.307301	
110000	-80582.574	14.126	0.208406	0.242761	0.241531	0.307301	
111000	-80486.366	14.079	0.208406	0.242761	0.241531	0.307301	
112000	-80310.196	14.079	0.208406	0.242761	0.241531	0.307301	
113000	-80154.187	13.897	0.208406	0.242761	0.241531	0.307301	
114000	-79966.455	13.829	0.209763	0.246180	0.239334	0.304723	
115000	-79931.294	13.801	0.209763	0.246180	0.239334	0.304723	
116000	-79827.875	13.711	0.209763	0.246180	0.239334	0.304723	
117000	-79556.487	13.683	0.209763	0.246180	0.239334	0.304723	
118000	-79465.034	13.530	0.206184	0.249456	0.235221	0.309139	
119000	-79411.765	13.424	0.203385	0.251652	0.243021	0.301942	
120000	-79367.238	13.430	0.203385	0.251652	0.243021	0.301942	
121000	-79295.404	13.395	0.203385	0.251652	0.243021	0.301942	
122000	-79259.293	13.337	0.203385	0.251652	0.243021	0.301942	
123000	-79196.055	13.278	0.203385	0.251652	0.243021	0.301942	
124000	-79100.981	13.184	0.212738	0.246758	0.235268	0.305236	
125000	-78988.484	13.123	0.211214	0.247987	0.234985	0.305814	
126000	-78721.060	12.997	0.207991	0.251659	0.237630	0.302721	
127000	-78570.004	12.931	0.207991	0.251659	0.237630	0.302721	
128000	-78493.721	12.821	0.207991	0.251659	0.237630	0.302721	
129000	-78395.781	12.803	0.207991	0.251659	0.237630	0.302721	
130000	-78356.726	12.858	0.207991	0.251659	0.237630	0.302721	
131000	-78322.345	12.831	0.207991	0.251659	0.237630	0.302721	
132000	-78270.043	12.854	0.207327	0.253078	0.236463	0.303132	
133000	-78207.298	12.750	0.207327	0.253078	0.236463	0.303132	
134000	-78188.413	12.850	0.207327	0.253078	0.236463	0.303132	
135000	-78153.487	12.843	0.208021	0.255005	0.235088	0.301886	
136000	-78110.352	12.822	0.208021	0.255005	0.235088	0.301886	
137000	-78085.533	12.852	0.211604	0.255072	0.240062	0.293262	
138000	-78029.584	12.822	0.211604	0.255072	0.240062	0.293262	
139000	-77994.684	12.821	0.211604	0.255072	0.240062	0.293262	
140000	-77978.355	12.868	0.211604	0.255072	0.240062	0.293262	
141000	-77960.609	12.840	0.211604	0.255072	0.240062	0.293262	
142000	-77958.104	12.744	0.211604	0.255072	0.240062	0.293262	
143000	-77937.674	12.781	0.211604	0.255072	0.240062	0.293262	
144000	-77925.243	12.747	0.211604	0.255072	0.240062	0.293262	
145000	-77908.905	12.637	0.207441	0.252665	0.237023	0.302871	
146000	-77935.486	12.644	0.207441	0.252665	0.237023	0.302871	
147000	-77922.200	12.716	0.207441	0.252665	0.237023	0.302871	
148000	-77889.036	12.649	0.207441	0.252665	0.237023	0.302871	
149000	-77893.768	12.717	0.207441	0.252665	0.237023	0.302871	
150000	-77890.213	12.715	0.207441	0.252665	0.237023	0.302871	
151000	-77865.880	12.684	0.207441	0.252665	0.237023	0.302871	
152000	-77833.628	12.586	0.207441	0.252665	0.237023	0.302871	
153000	-77807.116	12.486	0.207441	0.252665	0.237023	0.302871	
154000	-77811.521	12.474	0.207441	0.252665	0.237023	0.302871	
155000	-77786.675	12.451	0.207441	0.252665	0.237023	0.302871	
156000	-77770.001	12.453	0.207441	0.252665	0.237023	0.302871	
157000	-77736.939	12.532	0.207441	0.252665	0.237023	0.302871	
158000	-77712.821	12.533	0.207441	0.252665	0.237023	0.302871	
159000	-77687.040	12.471	0.207441	0.252665	0.237023	0.302871	
160000	-77670.431	12.390	0.207441	0.252665	0.237023	0.302871	
161000	-77647.038	12.422	0.207441	0.252665	0.237023	0.302871	
162000	-77668.564	12.409	0.204591	0.255290	0.243467	0.296652	
163000	-77647.296	12.404	0.208719	0.257550	0.237696	0.296035	
164000	-77623.482	12.375	0.208719	0.257550	0.237696	0.296035	
165000	-77588.990	12.407	0.209627	0.259674	0.241848	0.288850	
166000	-77529.005	12.302	0.206404	0.258985	0.242710	0.291901	
167000	-77497.508	12.267	0.215694	0.246481	0.239860	0.297965	
168000	-77504.560	12.344	0.211528	0.252363	0.236497	0.299613	
169000	-77511.790	12.372	0.204860	0.252686	0.239329	0.303125	
170000	-77510.708	12.425	0.211833	0.257258	0.240541	0.290369	
171000	-77498.009	12.402	0.211833	0.257258	0.240541	0.290369	
172000	-77499.226	12.425	0.206251	0.253286	0.239936	0.300528	
173000	-77498.702	12.387	0.207730	0.249506	0.245103	0.297660	
174000	-77484.753	12.403	0.207730	0.249506	0.245103	0.297660	
175000	-77503.303	12.363	0.209979	0.251417	0.242013	0.296591	
176000	-77450.106	12.417	0.209238	0.253573	0.237329	0.299860	
177000	-77439.291	12.414	0.213077	0.251777	0.241722	0.293424	
178000	-77403.729	12.458	0.213077	0.251777	0.241722	0.293424	
179000	-77384.482	12.475	0.213077	0.251777	0.241722	0.293424	
180000	-77361.241	12.407	0.210705	0.250862	0.243062	0.295371	
181000	-77325.960	12.446	0.209965	0.257844	0.235936	0.296255	
182000	-77309.844	12.422	0.209106	0.252961	0.235282	0.302652	
183000	-77309.323	12.371	0.209106	0.252961	0.235282	0.302652	
184000	-77298.758	12.407	0.209106	0.252961	0.235282	0.302652	
185000	-77305.694	12.516	0.209106	0.252961	0.235282	0.302652	
186000	-77298.688	12.524	0.209106	0.252961	0.235282	0.302652	
187000	-77295.984	12.562	0.209106	0.252961	0.235282	0.302652	
188000	-77303.164	12.598	0.209106	0.252961	0.235282	0.302652	
189000	-77291.952	12.510	0.217595	0.253222	0.235089	0.294093	
190000	-77149.780	12.608	0.205969	0.255338	0.240465	0.298228	
191000	-77061.489	12.540	0.205969	0.255338	0.240465	0.298228	
192000	-77041.210	12.489	0.205969	0.255338	0.240465	0.298228	
193000	-77022.744	12.430	0.205969	0.255338	0.240465	0.298228	
194000	-76925.351	12.568	0.209295	0.249441	0.239362	0.301902	
195000	-76324.591	12.567	0.209295	0.249441	0.239362	0.301902	
196000	-76086.946	12.533	0.213381	0.247849	0.236229	0.302541	
197000	-76048.711	12.564	0.213381	0.247849	0.236229	0.302541	
198000	-75938.367	12.581	0.209015	0.251353	0.236651	0.302981	
199000	-75364.757	12.565	0.209015	0.251353	0.236651	0.302981	
200000	-74857.233	12.539	0.209015	0.251353	0.236651	0.302981	
201000	-74679.751	12.528	0.209015	0.251353	0.236651	0.302981	
202000	-74074.637	12.371	0.209015	0.251353	0.236651	0.302981	
203000	-74008.769	12.361	0.209015	0.251353	0.236651	0.302981	
204000	-73883.385	12.317	0.205818	0.246668	0.241246	0.306268	
205000	-73722.899	12.136	0.205818	0.246668	0.241246	0.306268	
206000	-73469.713	12.128	0.207719	0.250408	0.230385	0.311488	
207000	-72965.695	12.176	0.213105	0.254157	0.232689	0.300049	
208000	-72846.759	12.134	0.205860	0.250809	0.236179	0.307152	
209000	-72731.884	12.136	0.208915	0.251043	0.238925	0.301117	
210000	-72534.045	12.006	0.208915	0.251043	0.238925	0.301117	
211000	-72325.250	12.050	0.208915	0.251043	0.238925	0.301117	
212000	-72219.777	11.998	0.208915	0.251043	0.238925	0.301117	
213000	-71978.922	12.050	0.208915	0.251043	0.238925	0.301117	
214000	-71395.301	12.008	0.208915	0.251043	0.238925	0.301117	
215000	-71313.883	11.877	0.210474	0.246651	0.231296	0.311580	
216000	-71228.398	11.794	0.210474	0.246651	0.231296	0.311580	
217000	-71098.277	11.801	0.222319	0.248544	0.231120	0.298017	
218000	-71063.281	11.769	0.222319	0.248544	0.231120	0.298017	
219000	-71014.379	11.774	0.222319	0.248544	0.231120	0.298017	
220000	-70960.650	11.788	0.222319	0.248544	0.231120	0.298017	
221000	-70899.306	11.757	0.222319	0.248544	0.231120	0.298017	
222000	-70861.505	11.683	0.222319	0.248544	0.231120	0.298017	
223000	-70804.122	11.508	0.222319	0.248544	0.231120	0.298017	
224000	-70751.362	11.498	0.214944	0.251905	0.237069	0.296082	
225000	-70686.204	11.494	0.214944	0.251905	0.237069	0.296082	
226000	-70587.797	11.485	0.214944	0.251905	0.237069	0.296082	
227000	-70539.274	11.412	0.218702	0.245034	0.237486	0.298778	
228000	-70513.094	11.470	0.218702	0.245034	0.237486	0.298778	
229000	-70448.246	11.468	0.218133	0.246640	0.233260	0.301966	
230000	-70415.760	11.447	0.218133	0.246640	0.233260	0.301966	
231000	-70418.094	11.485	0.212369	0.248171	0.233805	0.305655	
232000	-70389.372	11.361	0.221549	0.248278	0.236610	0.293562	
233000	-70414.772	11.417	0.221549	0.248278	0.236610	0.293562	
234000	-70386.562	11.365	0.221549	0.248278	0.236610	0.293562	
235000	-70381.992	11.365	0.221549	0.248278	0.236610	0.293562	
236000	-70383.401	11.315	0.217068	0.251673	0.238600	0.292658	
237000	-70365.244	11.261	0.217068	0.251673	0.238600	0.292658	
238000	-70338.517	11.232	0.217068	0.251673	0.238600	0.292658	
239000	-70337.931	11.184	0.217068	0.251673	0.238600	0.292658	
240000	-70340.942	11.240	0.217068	0.251673	0.238600	0.292658	
241000	-70329.316	11.259	0.217068	0.251673	0.238600	0.292658	
242000	-70209.099	11.210	0.214078	0.252690	0.238672	0.294560	
243000	-70136.432	11.289	0.214078	0.252690	0.238672	0.294560	
244000	-69796.679	11.330	0.214078	0.252690	0.238672	0.294560	
245000	-69732.031	11.309	0.214078	0.252690	0.238672	0.294560	
246000	-69465.601	11.334	0.214078	0.252690	0.238672	0.294560	
247000	-69367.165	11.297	0.216654	0.249711	0.238117	0.295519	
248000	-69334.709	11.290	0.216654	0.249711	0.238117	0.295519	
249000	-69275.913	11.262	0.213604	0.254255	0.239371	0.292769	
250000	-69181.580	11.269	0.220970	0.255042	0.227922	0.296066	
251000	-69072.751	11.237	0.220970	0.255042	0.227922	0.296066	
252000	-69033.540	11.184	0.217720	0.246300	0.232004	0.303976	
253000	-68790.782	11.146	0.217720	0.246300	0.232004	0.303976	
254000	-68719.244	11.135	0.217720	0.246300	0.232004	0.303976	
255000	-68655.206	11.036	0.217720	0.246300	0.232004	0.303976	
256000	-68309.779	11.036	0.217720	0.246300	0.232004	0.303976	
257000	-68158.646	10.960	0.217720	0.246300	0.232004	0.303976	
258000	-67940.184	10.943	0.217720	0.246300	0.232004	0.303976	
259000	-67703.762	10.923	0.217720	0.246300	0.232004	0.303976	
260000	-67399.793	10.929	0.217720	0.246300	0.232004	0.303976	
261000	-67155.089	10.897	0.217720	0.246300	0.232004	0.303976	
262000	-67021.773	10.891	0.212291	0.239236	0.239449	0.309024	
263000	-66836.828	10.982	0.212291	0.239236	0.239449	0.309024	
264000	-66253.526	10.913	0.212291	0.239236	0.239449	0.309024	
265000	-65992.455	10.861	0.221415	0.242031	0.236523	0.300031	
266000	-65239.528	10.913	0.225630	0.236600	0.218897	0.318873	
267000	-64534.424	10.829	0.218832	0.233428	0.240200	0.307539	
268000	-63839.049	10.679	0.218832	0.233428	0.240200	0.307539	
269000	-63463.685	10.567	0.219243	0.234276	0.227251	0.319230	
270000	-63143.224	10.528	0.218606	0.240837	0.226334	0.314223	
271000	-62895.266	10.485	0.225543	0.238969	0.223179	0.312309	
272000	-62264.647	10.508	0.225543	0.238969	0.223179	0.312309	
273000	-61992.980	10.493	0.225543	0.238969	0.223179	0.312309	
274000	-61613.056	10.509	0.219810	0.238694	0.233298	0.308198	
275000	-61305.438	10.535	0.231047	0.237212	0.232195	0.299546	
276000	-60821.025	10.355	0.231047	0.237212	0.232195	0.299546	
277000	-60417.815	10.357	0.222303	0.229744	0.231523	0.316430	
278000	-60065.916	10.334	0.222303	0.229744	0.231523	0.316430	
279000	-59534.563	10.310	0.218114	0.238259	0.219694	0.323933	
280000	-59179.331	10.254	0.222609	0.232874	0.232481	0.312036	
281000	-58896.358	10.193	0.233907	0.230906	0.227673	0.307513	
282000	-58771.369	10.220	0.233907	0.230906	0.227673	0.307513	
283000	-58600.287	9.890	0.233907	0.230906	0.227673	0.307513	
284000	-58238.795	9.842	0.222029	0.236817	0.226081	0.315073	
285000	-58086.400	9.688	0.221586	0.239547	0.223339	0.315528	
286000	-57972.442	9.703	0.221586	0.239547	0.223339	0.315528	
287000	-57766.189	9.689	0.221586	0.239547	0.223339	0.315528	
288000	-57517.725	9.677	0.225297	0.234181	0.232779	0.307744	
289000	-57421.513	9.667	0.225297	0.234181	0.232779	0.307744	
290000	-57364.483	9.546	0.225297	0.234181	0.232779	0.307744	
291000	-57127.453	9.593	0.225297	0.234181	0.232779	0.307744	
292000	-56962.551	9.601	0.225297	0.234181	0.232779	0.307744	
293000	-56776.530	9.585	0.225297	0.234181	0.232779	0.307744	
294000	-56609.303	9.597	0.225297	0.234181	0.232779	0.307744	
295000	-56428.159	9.638	0.230129	0.240698	0.225898	0.303275	
296000	-56105.157	9.558	0.230129	0.240698	0.225898	0.303275	
297000	-55989.565	9.474	0.217727	0.238709	0.232578	0.310986	
298000	-55950.153	9.492	0.221370	0.234113	0.233466	0.311051	
299000	-55828.923	9.462	0.221370	0.234113	0.233466	0.311051	
300000	-55804.387	9.507	0.221370	0.234113	0.233466	0.311051	
301000	-55744.022	9.466	0.227859	0.239199	0.220727	0.312216	
302000	-55645.608	9.400	0.227859	0.239199	0.220727	0.312216	
303000	-55601.990	9.325	0.227859	0.239199	0.220727	0.312216	
304000	-55522.642	9.246	0.227859	0.239199	0.220727	0.312216	
305000	-54989.376	9.179	0.216261	0.234382	0.226650	0.322707	
306000	-54801.151	9.179	0.221001	0.229364	0.232459	0.317176	
307000	-54645.974	9.177	0.221001	0.229364	0.232459	0.317176	
308000	-54446.813	9.179	0.224349	0.240310	0.229668	0.305673	
309000	-54264.037	9.097	0.223569	0.233248	0.227144	0.316040	
310000	-54157.333	9.162	0.223569	0.233248	0.227144	0.316040	
311000	-54018.063	9.189	0.225511	0.236537	0.220248	0.317705	
312000	-53861.694	9.083	0.225511	0.236537	0.220248	0.317705	
313000	-53643.083	8.934	0.225511	0.236537	0.220248	0.317705	
314000	-53504.011	8.972	0.225511	0.236537	0.220248	0.317705	
315000	-53455.432	8.913	0.225511	0.236537	0.220248	0.317705	
316000	-53196.553	8.809	0.225511	0.236537	0.220248	0.317705	
317000	-53043.795	8.843	0.221823	0.237951	0.229869	0.310356	
318000	-52969.383	8.884	0.220227	0.233790	0.232743	0.313240	
319000	-52886.802	8.869	0.232724	0.228834	0.231499	0.306943	
320000	-52829.977	8.816	0.232724	0.228834	0.231499	0.306943	
321000	-52787.589	8.778	0.232724	0.228834	0.231499	0.306943	
322000	-52725.460	8.755	0.226910	0.237977	0.225536	0.309577	
323000	-52656.136	8.679	0.231951	0.229758	0.228429	0.309862	
324000	-52565.776	8.672	0.231951	0.229758	0.228429	0.309862	
325000	-52497.028	8.558	0.231951	0.229758	0.228429	0.309862	
326000	-52494.410	8.601	0.231951	0.229758	0.228429	0.309862	
327000	-52253.288	8.591	0.233320	0.233285	0.225864	0.307531	
328000	-52178.237	8.606	0.232448	0.235630	0.229822	0.302099	
329000	-52139.221	8.542	0.233901	0.231113	0.228156	0.306831	
330000	-52057.721	8.491	0.223845	0.237344	0.234985	0.303826	
331000	-52052.797	8.545	0.223845	0.237344	0.234985	0.303826	
332000	-51734.432	8.426	0.223845	0.237344	0.234985	0.303826	
333000	-51689.773	8.319	0.233725	0.227885	0.229786	0.308604	
334000	-51615.507	8.244	0.224053	0.230522	0.237579	0.307845	
335000	-51594.341	8.237	0.226056	0.230192	0.224897	0.318854	
336000	-51535.422	8.261	0.233783	0.237725	0.233066	0.295427	
337000	-51497.211	8.190	0.224433	0.235110	0.232684	0.307772	
338000	-51459.609	8.187	0.236486	0.236656	0.227564	0.299294	
339000	-51464.590	8.201	0.230651	0.238910	0.231713	0.298726	
340000	-51422.739	8.218	0.229201	0.235817	0.226612	0.308370	
341000	-51403.475	8.255	0.229201	0.235817	0.226612	0.308370	
342000	-51401.836	8.277	0.229201	0.235817	0.226612	0.308370	
343000	-51378.083	8.285	0.229201	0.235817	0.226612	0.308370	
344000	-51376.483	8.335	0.233233	0.236860	0.228318	0.301589	
345000	-51288.185	8.347	0.233233	0.236860	0.228318	0.301589	
346000	-51187.561	8.321	0.233233	0.236860	0.228318	0.301589	
347000	-51070.800	8.267	0.233233	0.236860	0.228318	0.301589	
348000	-51057.666	8.309	0.233233	0.236860	0.228318	0.301589	
349000	-50996.317	8.271	0.233233	0.236860	0.228318	0.301589	
350000	-50968.136	8.263	0.233233	0.236860	0.228318	0.301589	
351000	-50897.307	8.230	0.231675	0.237320	0.228145	0.302860	
352000	-50833.704	8.280	0.233283	0.232634	0.228410	0.305672	
353000	-50800.571	8.264	0.232629	0.246835	0.222435	0.298101	
354000	-50778.835	8.242	0.234660	0.243457	0.216727	0.305156	
355000	-50722.264	8.151	0.226465	0.228727	0.231870	0.312938	
356000	-50705.327	8.166	0.226465	0.228727	0.231870	0.312938	
357000	-50678.239	8.144	0.221071	0.246738	0.228135	0.304056	
358000	-50654.872	8.046	0.221071	0.246738	0.228135	0.304056	
359000	-50650.347	8.028	0.225527	0.243538	0.233606	0.297330	
360000	-50624.143	8.090	0.225527	0.243538	0.233606	0.297330	
361000	-50638.627	8.158	0.219877	0.240540	0.232725	0.306857	
362000	-50634.735	8.113	0.236616	0.233418	0.233912	0.296054	
363000	-50624.091	8.129	0.242109	0.239055	0.224176	0.294660	
364000	-50607.896	8.142	0.234454	0.230858	0.234222	0.300466	
365000	-50603.786	8.184	0.234454	0.230858	0.234222	0.300466	
366000	-50600.547	8.201	0.226448	0.237759	0.238086	0.297707	
367000	-50585.199	8.154	0.230687	0.247436	0.218471	0.303406	
368000	-50568.502	8.115	0.227116	0.241272	0.226248	0.305364	
369000	-50559.534	8.056	0.227116	0.241272	0.226248	0.305364	
370000	-50558.077	8.081	0.235279	0.239312	0.225268	0.300140	
371000	-50554.606	8.054	0.227645	0.245776	0.230355	0.296224	
372000	-50561.436	8.015	0.227645	0.245776	0.230355	0.296224	
373000	-50558.441	8.031	0.227388	0.232459	0.235295	0.304857	
374000	-50561.558	8.048	0.227388	0.232459	0.235295	0.304857	
375000	-50516.179	8.036	0.227388	0.232459	0.235295	0.304857	
376000	-50512.678	7.965	0.231293	0.235228	0.231294	0.302185	
377000	-50490.625	8.000	0.231293	0.235228	0.231294	0.302185	
378000	-50479.363	7.981	0.237327	0.243429	0.221290	0.297954	
379000	-50466.976	7.958	0.226506	0.240776	0.231660	0.301058	
380000	-50441.465	7.886	0.226506	0.240776	0.231660	0.301058	
381000	-50433.345	7.910	0.226506	0.240776	0.231660	0.301058	
382000	-50393.032	7.875	0.226506	0.240776	0.231660	0.301058	
383000	-50373.470	7.840	0.226506	0.240776	0.231660	0.301058	
384000	-50383.010	7.866	0.226778	0.238386	0.226908	0.307929	
385000	-50378.743	7.853	0.226778	0.238386	0.226908	0.307929	
386000	-50395.805	7.923	0.236894	0.233250	0.227055	0.302801	
387000	-50405.554	7.943	0.231729	0.234159	0.237701	0.296412	
388000	-50398.611	7.950	0.233087	0.242317	0.231604	0.292992	
389000	-50395.121	8.010	0.233087	0.242317	0.231604	0.292992	
390000	-50381.662	7.995	0.229691	0.235195	0.234350	0.300763	
391000	-50386.580	8.009	0.234583	0.244199	0.229820	0.291397	
392000	-50386.037	8.011	0.227901	0.245753	0.234798	0.291549	
393000	-50406.308	8.005	0.230587	0.248895	0.233009	0.287509	
394000	-50386.000	7.935	0.225461	0.243550	0.239784	0.291205	
395000	-50410.244	7.932	0.223760	0.240236	0.231778	0.304227	
396000	-50407.637	7.978	0.223760	0.240236	0.231778	0.304227	
397000	-50399.805	7.944	0.223760	0.240236	0.231778	0.304227	
398000	-50409.261	7.899	0.218446	0.235104	0.238371	0.308080	
399000	-50414.762	7.884	0.242201	0.234363	0.226799	0.296636	
400000	-50408.041	7.957	0.233867	0.230657	0.227764	0.307712	
401000	-50412.326	7.998	0.232569	0.235832	0.223992	0.307606	
402000	-50436.587	7.996	0.222192	0.240930	0.237121	0.299756	
403000	-50396.075	7.955	0.227863	0.244487	0.227762	0.299888	
404000	-50412.940	7.951	0.227863	0.244487	0.227762	0.299888	
405000	-50408.354	7.997	0.234990	0.231271	0.226188	0.307550	
406000	-50414.177	7.973	0.234990	0.231271	0.226188	0.307550	
407000	-50408.989	8.031	0.217068	0.231299	0.236205	0.315427	
408000	-50389.115	8.028	0.230894	0.231722	0.228141	0.309243	
409000	-50380.361	8.066	0.230894	0.231722	0.228141	0.309243	
410000	-50380.200	8.071	0.230894	0.231722	0.228141	0.309243	
411000	-50391.760	8.100	0.230894	0.231722	0.228141	0.309243	
412000	-50346.767	7.994	0.230894	0.231722	0.228141	0.309243	
413000	-50331.948	7.938	0.226099	0.239262	0.223099	0.311541	
414000	-50314.502	7.933	0.229528	0.241518	0.232235	0.296719	
415000	-50313.660	7.920	0.229528	0.241518	0.232235	0.296719	
416000	-50355.488	7.951	0.229363	0.243180	0.226131	0.301325	
417000	-50351.278	7.953	0.231367	0.233918	0.226828	0.307888	
418000	-50370.222	7.975	0.231367	0.233918	0.226828	0.307888	
419000	-50373.928	7.990	0.231367	0.233918	0.226828	0.307888	
420000	-50362.818	7.905	0.231367	0.233918	0.226828	0.307888	
421000	-50342.411	7.889	0.232639	0.230904	0.225892	0.310565	
422000	-50326.190	7.890	0.223967	0.243277	0.230036	0.302720	
423000	-50326.291	7.939	0.231423	0.236707	0.237514	0.294356	
424000	-50342.702	8.025	0.231423	0.236707	0.237514	0.294356	
425000	-50345.899	8.092	0.225102	0.244092	0.231336	0.299469	
426000	-50332.444	8.043	0.231456	0.232610	0.234137	0.301797	
427000	-50333.334	8.055	0.224243	0.241538	0.229055	0.305164	
428000	-50345.748	8.019	0.224243	0.241538	0.229055	0.305164	
429000	-50337.114	8.037	0.224243	0.241538	0.229055	0.305164	
430000	-50336.558	8.023	0.224243	0.241538	0.229055	0.305164	
431000	-50351.498	8.051	0.231293	0.239585	0.229263	0.299859	
432000	-50377.232	8.068	0.231293	0.239585	0.229263	0.299859	
433000	-50375.297	8.064	0.235627	0.235155	0.232661	0.296558	
434000	-50381.727	8.027	0.228568	0.232231	0.235295	0.303907	
435000	-50318.701	7.979	0.237422	0.237785	0.229164	0.295629	
436000	-50317.665	8.003	0.237422	0.237785	0.229164	0.295629	
437000	-50334.565	8.005	0.237422	0.237785	0.229164	0.295629	
438000	-50324.964	8.011	0.237422	0.237785	0.229164	0.295629	
439000	-50314.367	8.028	0.240075	0.239198	0.225764	0.294963	
440000	-50302.628	7.955	0.232874	0.234342	0.231022	0.301761	
441000	-50286.154	7.973	0.232874	0.234342	0.231022	0.301761	
442000	-50277.123	7.894	0.232874	0.234342	0.231022	0.301761	
443000	-50280.774	7.920	0.232874	0.234342	0.231022	0.301761	
444000	-50280.848	7.945	0.232874	0.234342	0.231022	0.301761	
445000	-50289.851	7.969	0.232874	0.234342	0.231022	0.301761	
446000	-50307.262	7.938	0.233061	0.234073	0.230239	0.302627	
447000	-50296.619	7.954	0.224494	0.236307	0.233207	0.305992	
448000	-50287.561	7.945	0.224494	0.236307	0.233207	0.305992	
449000	-50288.661	7.998	0.228693	0.237329	0.235535	0.298443	
450000	-50295.465	7.997	0.231056	0.228762	0.234074	0.306107	
451000	-50293.631	7.940	0.228375	0.237640	0.237822	0.296163	
452000	-50292.528	7.952	0.228375	0.237640	0.237822	0.296163	
453000	-50294.984	7.857	0.228375	0.237640	0.237822	0.296163	
454000	-50288.463	7.866	0.228375	0.237640	0.237822	0.296163	
455000	-50296.434	7.879	0.228375	0.237640	0.237822	0.296163	
456000	-50291.133	7.884	0.232758	0.242598	0.234061	0.290582	
457000	-50290.194	7.930	0.225245	0.237362	0.227681	0.309712	
458000	-50271.748	7.910	0.229921	0.244622	0.229871	0.295587	
459000	-50277.080	7.880	0.229921	0.244622	0.229871	0.295587	
460000	-50250.846	7.839	0.225346	0.237526	0.234180	0.302947	
461000	-50247.499	7.801	0.225253	0.235123	0.233743	0.305882	
462000	-50263.487	7.881	0.225253	0.235123	0.233743	0.305882	
463000	-50270.512	7.873	0.225253	0.235123	0.233743	0.305882	
464000	-50267.614	7.889	0.225253	0.235123	0.233743	0.305882	
465000	-50279.780	7.919	0.234995	0.233309	0.226745	0.304952	
466000	-50279.086	7.912	0.226159	0.231222	0.238333	0.304286	
467000	-50302.615	7.919	0.234574	0.246322	0.221268	0.297837	
468000	-50304.577	7.910	0.234574	0.246322	0.221268	0.297837	
469000	-50291.330	7.889	0.225380	0.241527	0.243174	0.289920	
470000	-50274.287	7.939	0.230618	0.244937	0.226244	0.298200	
471000	-50289.550	7.946	0.230249	0.242243	0.234436	0.293073	
472000	-50285.290	7.963	0.237781	0.232777	0.237282	0.292160	
473000	-50279.218	7.988	0.224046	0.239954	0.239286	0.296715	
474000	-50292.437	7.975	0.224613	0.232393	0.231576	0.311418	
475000	-50280.722	7.986	0.232549	0.241646	0.223345	0.302461	
476000	-50267.571	7.937	0.231319	0.239912	0.232399	0.296370	
477000	-50271.193	7.906	0.231319	0.239912	0.232399	0.296370	
478000	-50274.198	7.878	0.231319	0.239912	0.232399	0.296370	
479000	-50276.466	7.895	0.231319	0.239912	0.232399	0.296370	
480000	-50276.416	7.859	0.231319	0.239912	0.232399	0.296370	
481000	-50300.177	7.865	0.231319	0.239912	0.232399	0.296370	
482000	-50331.842	7.885	0.231319	0.239912	0.232399	0.296370	
483000	-50326.531	7.897	0.234132	0.240516	0.225426	0.299926	
484000	-50324.121	7.908	0.234132	0.240516	0.225426	0.299926	
485000	-50305.480	7.942	0.232649	0.232084	0.229165	0.306101	
486000	-50305.812	7.978	0.227057	0.235336	0.219023	0.318584	
487000	-50318.419	8.005	0.227234	0.248839	0.237391	0.286536	
488000	-50315.752	8.050	0.238478	0.229756	0.220985	0.310782	
489000	-50305.608	8.011	0.214060	0.250416	0.230565	0.304959	
490000	-50301.637	7.855	0.227271	0.240253	0.224706	0.307770	
491000	-50286.802	7.824	0.227271	0.240253	0.224706	0.307770	
492000	-50282.066	7.875	0.227271	0.240253	0.224706	0.307770	
493000	-50287.046	7.830	0.236106	0.234739	0.229245	0.299910	
494000	-50262.809	7.810	0.232425	0.237443	0.225746	0.304386	
495000	-50254.233	7.808	0.219435	0.241987	0.232854	0.305724	
496000	-50239.466	7.874	0.219435	0.241987	0.232854	0.305724	
497000	-50224.702	7.929	0.219435	0.241987	0.232854	0.305724	
498000	-50240.195	7.994	0.219435	0.241987	0.232854	0.305724	
499000	-50234.840	7.993	0.219435	0.241987	0.232854	0.305724	
500000	-50255.147	7.938	0.219435	0.241987	0.232854	0.305724	
501000	-50279.171	7.941	0.220332	0.244512	0.238327	0.296829	
502000	-50251.376	7.922	0.228807	0.230371	0.238794	0.302027	
503000	-50248.915	7.898	0.234105	0.230655	0.235448	0.299792	
504000	-50241.101	7.883	0.234105	0.230655	0.235448	0.299792	
505000	-50238.244	7.843	0.231506	0.231752	0.236487	0.300254	
506000	-50240.842	7.849	0.222071	0.248376	0.228437	0.301115	
507000	-50247.189	7.911	0.222071	0.248376	0.228437	0.301115	
508000	-50246.957	7.885	0.222071	0.248376	0.228437	0.301115	
509000	-50257.109	7.960	0.225450	0.236337	0.237610	0.300603	
510000	-50225.850	7.935	0.225450	0.236337	0.237610	0.300603	
511000	-50201.192	7.863	0.225450	0.236337	0.237610	0.300603	
512000	-50201.659	7.888	0.228505	0.240547	0.223975	0.306973	
513000	-50196.685	7.880	0.228505	0.240547	0.223975	0.306973	
514000	-50203.971	7.882	0.228505	0.240547	0.223975	0.306973	
515000	-50209.106	7.940	0.227962	0.246801	0.233575	0.291662	
516000	-50214.686	7.953	0.221658	0.232104	0.237419	0.308820	
517000	-50200.080	7.919	0.231455	0.240473	0.234194	0.293878	
518000	-50186.224	7.895	0.231455	0.240473	0.234194	0.293878	
519000	-50198.129	7.902	0.231455	0.240473	0.234194	0.293878	
520000	-50214.723	7.993	0.230573	0.233412	0.229766	0.306249	
521000	-50210.554	7.973	0.227775	0.242324	0.227559	0.302343	
522000	-50223.730	7.974	0.227775	0.242324	0.227559	0.302343	
523000	-50245.590	8.009	0.227775	0.242324	0.227559	0.302343	
524000	-50220.211	8.010	0.227775	0.242324	0.227559	0.302343	
525000	-50229.087	8.008	0.233062	0.235196	0.236295	0.295447	
526000	-50211.639	8.010	0.233398	0.231551	0.235912	0.299139	
527000	-50219.830	8.003	0.233398	0.231551	0.235912	0.299139	
528000	-50231.847	7.969	0.233032	0.245641	0.227219	0.294109	
529000	-50223.298	7.953	0.234770	0.237755	0.233970	0.293505	
530000	-50214.087	8.044	0.234770	0.237755	0.233970	0.293505	
531000	-50221.237	8.006	0.234770	0.237755	0.233970	0.293505	
532000	-50206.933	7.976	0.233775	0.231539	0.226782	0.307904	
533000	-50199.590	8.002	0.232912	0.238373	0.223862	0.304853	
534000	-50198.637	7.964	0.229449	0.233982	0.233644	0.302926	
535000	-50203.966	7.998	0.229449	0.233982	0.233644	0.302926	
536000	-50185.563	7.950	0.229449	0.233982	0.233644	0.302926	
537000	-50200.823	7.967	0.229449	0.233982	0.233644	0.302926	
538000	-50190.447	7.968	0.230114	0.239618	0.228583	0.301684	
539000	-50193.116	7.934	0.230114	0.239618	0.228583	0.301684	
540000	-50198.273	7.956	0.230114	0.239618	0.228583	0.301684	
541000	-50226.004	7.965	0.230114	0.239618	0.228583	0.301684	
542000	-50232.632	7.938	0.230114	0.239618	0.228583	0.301684	
543000	-50124.794	7.918	0.221836	0.248436	0.229963	0.299765	
544000	-50132.264	7.938	0.223365	0.237832	0.239016	0.299788	
545000	-50068.480	7.891	0.233055	0.238116	0.234239	0.294590	
546000	-50060.711	7.899	0.233055	0.238116	0.234239	0.294590	
547000	-50047.796	7.851	0.232523	0.242054	0.226064	0.299359	
548000	-50043.746	7.803	0.234307	0.239579	0.231131	0.294982	
549000	-50020.503	7.831	0.234307	0.239579	0.231131	0.294982	
550000	-50024.336	7.854	0.234307	0.239579	0.231131	0.294982	
551000	-50028.216	7.828	0.226224	0.237975	0.234283	0.301517	
552000	-50039.588	7.869	0.226224	0.237975	0.234283	0.301517	
553000	-50020.271	7.838	0.226224	0.237975	0.234283	0.301517	
554000	-49910.740	7.922	0.226224	0.237975	0.234283	0.301517	
555000	-49802.699	8.003	0.226224	0.237975	0.234283	0.301517	
556000	-49746.660	7.887	0.226224	0.237975	0.234283	0.301517	
557000	-49724.340	7.855	0.226224	0.237975	0.234283	0.301517	
558000	-49684.072	7.828	0.221721	0.245170	0.234613	0.298496	
559000	-49685.079	7.870	0.240731	0.239350	0.227205	0.292713	
560000	-49644.792	7.857	0.240731	0.239350	0.227205	0.292713	
561000	-49575.223	7.817	0.226235	0.238002	0.239804	0.295960	
562000	-49550.715	7.808	0.226235	0.238002	0.239804	0.295960	
563000	-49531.923	7.831	0.240918	0.232682	0.235173	0.291227	
564000	-49439.035	7.791	0.225124	0.243963	0.234146	0.296768	
565000	-49402.751	7.787	0.232332	0.243943	0.233478	0.290247	
566000	-49182.681	7.752	0.222023	0.239910	0.233145	0.304922	
567000	-49154.697	7.743	0.231530	0.236126	0.238236	0.294108	
568000	-49150.646	7.815	0.226437	0.243216	0.233909	0.296438	
569000	-49139.327	7.789	0.232756	0.238076	0.223699	0.305469	
570000	-49142.726	7.810	0.226358	0.237311	0.238204	0.298127	
571000	-48998.465	7.765	0.226358	0.237311	0.238204	0.298127	
572000	-48870.499	7.731	0.226358	0.237311	0.238204	0.298127	
573000	-48813.081	7.752	0.226358	0.237311	0.238204	0.298127	
574000	-48813.559	7.786	0.226358	0.237311	0.238204	0.298127	
575000	-48800.379	7.820	0.226358	0.237311	0.238204	0.298127	
576000	-48765.135	7.775	0.226358	0.237311	0.238204	0.298127	
577000	-48750.020	7.817	0.232147	0.238118	0.238965	0.290770	
578000	-48734.496	7.848	0.230936	0.235733	0.234158	0.299172	
579000	-48707.493	7.781	0.230936	0.235733	0.234158	0.299172	
580000	-48704.317	7.814	0.236974	0.231155	0.229435	0.302436	
581000	-48675.475	7.853	0.236974	0.231155	0.229435	0.302436	
582000	-48660.711	7.845	0.222853	0.236400	0.237824	0.302923	
583000	-48657.214	7.766	0.230734	0.237357	0.237237	0.294672	
584000	-48646.868	7.775	0.233842	0.233617	0.232242	0.300299	
585000	-48652.741	7.771	0.221760	0.239448	0.233783	0.305009	
586000	-48635.094	7.819	0.221760	0.239448	0.233783	0.305009	
587000	-48631.026	7.783	0.221760	0.239448	0.233783	0.305009	
588000	-48631.304	7.821	0.222925	0.238793	0.233089	0.305193	
589000	-48597.270	7.723	0.222925	0.238793	0.233089	0.305193	
590000	-48565.505	7.664	0.226327	0.243304	0.234044	0.296326	
591000	-48579.006	7.705	0.231332	0.239298	0.240058	0.289311	
592000	-48585.868	7.696	0.231332	0.239298	0.240058	0.289311	
593000	-48574.797	7.679	0.231332	0.239298	0.240058	0.289311	
594000	-48596.035	7.715	0.225537	0.228659	0.242537	0.303267	
595000	-48596.809	7.783	0.223622	0.237698	0.230605	0.308075	
596000	-48591.196	7.728	0.229665	0.237481	0.232923	0.299931	
597000	-48579.313	7.668	0.229665	0.237481	0.232923	0.299931	
598000	-48561.338	7.621	0.229665	0.237481	0.232923	0.299931	
599000	-48555.773	7.629	0.229665	0.237481	0.232923	0.299931	
600000	-48560.627	7.709	0.234315	0.228638	0.232005	0.305043	
601000	-48540.864	7.714	0.233963	0.230323	0.239741	0.295973	
602000	-48542.118	7.767	0.233963	0.230323	0.239741	0.295973	
603000	-48544.340	7.716	0.228647	0.231221	0.234646	0.305485	
604000	-48543.969	7.671	0.230094	0.241610	0.230389	0.297906	
605000	-48562.820	7.673	0.230094	0.241610	0.230389	0.297906	
606000	-48560.170	7.660	0.226541	0.241389	0.231613	0.300457	
607000	-48571.588	7.715	0.226541	0.241389	0.231613	0.300457	
608000	-48561.121	7.744	0.228126	0.241243	0.225645	0.304986	
609000	-48582.708	7.778	0.227350	0.238361	0.232788	0.301501	
610000	-48571.832	7.792	0.231755	0.233372	0.230116	0.304757	
611000	-48571.785	7.717	0.229393	0.238508	0.232329	0.299770	
612000	-48560.626	7.704	0.229393	0.238508	0.232329	0.299770	
613000	-48572.826	7.713	0.229393	0.238508	0.232329	0.299770	
614000	-48578.147	7.756	0.229393	0.238508	0.232329	0.299770	
615000	-48561.677	7.715	0.229393	0.238508	0.232329	0.299770	
616000	-48572.972	7.724	0.223981	0.239378	0.238351	0.298290	
617000	-48584.685	7.732	0.221047	0.242836	0.238591	0.297526	
618000	-48553.351	7.704	0.223748	0.238271	0.237657	0.300325	
619000	-48525.695	7.666	0.226198	0.242593	0.232274	0.298935	
620000	-48533.412	7.651	0.230099	0.239496	0.235570	0.294835	
621000	-48526.306	7.648	0.230099	0.239496	0.235570	0.294835	
622000	-48528.783	7.685	0.230099	0.239496	0.235570	0.294835	
623000	-48522.340	7.662	0.230099	0.239496	0.235570	0.294835	
624000	-48521.175	7.661	0.230099	0.239496	0.235570	0.294835	
625000	-48535.952	7.670	0.230997	0.239010	0.236018	0.293975	
626000	-48532.278	7.617	0.231124	0.240060	0.233528	0.295287	
627000	-48513.055	7.584	0.231124	0.240060	0.233528	0.295287	
628000	-48523.235	7.581	0.231124	0.240060	0.233528	0.295287	
629000	-48486.623	7.598	0.231124	0.240060	0.233528	0.295287	
630000	-48497.251	7.683	0.230561	0.236718	0.228496	0.304224	
631000	-48513.831	7.692	0.230561	0.236718	0.228496	0.304224	
632000	-48520.814	7.732	0.230561	0.236718	0.228496	0.304224	
633000	-48536.519	7.756	0.230561	0.236718	0.228496	0.304224	
634000	-48524.747	7.759	0.230561	0.236718	0.228496	0.304224	
635000	-48525.363	7.742	0.222838	0.238060	0.240544	0.298558	
636000	-48537.805	7.747	0.222838	0.238060	0.240544	0.298558	
637000	-48527.360	7.743	0.222838	0.238060	0.240544	0.298558	
638000	-48517.889	7.768	0.226641	0.232405	0.233495	0.307459	
639000	-48540.119	7.806	0.226641	0.232405	0.233495	0.307459	
640000	-48552.329	7.770	0.226641	0.232405	0.233495	0.307459	
641000	-48540.082	7.776	0.221978	0.240408	0.237911	0.299703	
642000	-48530.773	7.745	0.230406	0.239361	0.230514	0.299718	
643000	-48534.658	7.736	0.230406	0.239361	0.230514	0.299718	
644000	-48564.493	7.807	0.230406	0.239361	0.230514	0.299718	
645000	-48591.401	7.858	0.230406	0.239361	0.230514	0.299718	
646000	-48575.166	7.810	0.230406	0.239361	0.230514	0.299718	
647000	-48580.884	7.825	0.230406	0.239361	0.230514	0.299718	
648000	-48574.916	7.825	0.227034	0.241535	0.228578	0.302853	
649000	-48573.992	7.798	0.227034	0.241535	0.228578	0.302853	
650000	-48556.249	7.778	0.229056	0.243730	0.231448	0.295766	
651000	-48551.063	7.796	0.229056	0.243730	0.231448	0.295766	
652000	-48560.280	7.797	0.229056	0.243730	0.231448	0.295766	
653000	-48595.879	7.828	0.229056	0.243730	0.231448	0.295766	
654000	-48575.956	7.858	0.229056	0.243730	0.231448	0.295766	
655000	-48589.636	7.854	0.236936	0.235844	0.237294	0.289925	
656000	-48601.481	7.878	0.236936	0.235844	0.237294	0.289925	
657000	-48589.416	7.906	0.236936	0.235844	0.237294	0.289925	
658000	-48601.276	7.812	0.226127	0.237515	0.240475	0.295882	
659000	-48601.038	7.835	0.226127	0.237515	0.240475	0.295882	
660000	-48576.227	7.826	0.222659	0.245882	0.224177	0.307282	
661000	-48573.394	7.777	0.228830	0.232568	0.226964	0.311638	
662000	-48555.116	7.729	0.228830	0.232568	0.226964	0.311638	
663000	-48560.248	7.724	0.228830	0.232568	0.226964	0.311638	
664000	-48564.581	7.681	0.222840	0.243134	0.231782	0.302244	
665000	-48552.976	7.682	0.222840	0.243134	0.231782	0.302244	
666000	-48536.629	7.616	0.235168	0.233760	0.227164	0.303908	
667000	-48542.947	7.542	0.223901	0.243249	0.238762	0.294088	
668000	-48538.298	7.518	0.229989	0.240246	0.237399	0.292366	
669000	-48522.407	7.531	0.229989	0.240246	0.237399	0.292366	
670000	-48521.544	7.519	0.230012	0.234507	0.243394	0.292088	
671000	-48507.158	7.576	0.217665	0.238978	0.238240	0.305117	
672000	-48535.889	7.593	0.217984	0.237014	0.241013	0.303988	
673000	-48538.606	7.559	0.227081	0.239018	0.239222	0.294679	
674000	-48535.311	7.561	0.227081	0.239018	0.239222	0.294679	
675000	-48528.605	7.599	0.227081	0.239018	0.239222	0.294679	
676000	-48543.748	7.637	0.216997	0.233844	0.235146	0.314013	
677000	-48538.961	7.622	0.227760	0.247422	0.229187	0.295631	
678000	-48534.780	7.640	0.226541	0.240620	0.226794	0.306045	
679000	-48560.349	7.668	0.226541	0.240620	0.226794	0.306045	
680000	-48547.718	7.679	0.230602	0.243598	0.228021	0.297779	
681000	-48545.876	7.711	0.236636	0.239018	0.221683	0.302663	
682000	-48528.640	7.690	0.219484	0.241230	0.236671	0.302615	
683000	-48543.523	7.699	0.239477	0.240628	0.231703	0.288192	
684000	-48508.154	7.680	0.234607	0.237173	0.233150	0.295070	
685000	-48491.372	7.745	0.227737	0.235844	0.238166	0.298254	
686000	-48474.361	7.656	0.227737	0.235844	0.238166	0.298254	
687000	-48467.135	7.651	0.224211	0.243688	0.233242	0.298858	
688000	-48436.202	7.499	0.224211	0.243688	0.233242	0.298858	
689000	-48386.356	7.496	0.224211	0.243688	0.233242	0.298858	
690000	-48207.788	7.429	0.236918	0.237518	0.230937	0.294627	
691000	-48106.714	7.474	0.227718	0.240076	0.221891	0.310315	
692000	-48067.127	7.510	0.235281	0.235080	0.230806	0.298833	
693000	-48087.102	7.561	0.235281	0.235080	0.230806	0.298833	
694000	-48067.828	7.538	0.235281	0.235080	0.230806	0.298833	
695000	-48011.477	7.578	0.235281	0.235080	0.230806	0.298833	
696000	-48001.245	7.614	0.235281	0.235080	0.230806	0.298833	
697000	-47986.507	7.595	0.237039	0.237642	0.223928	0.301391	
698000	-47968.801	7.563	0.231015	0.239361	0.233834	0.295790	
699000	-47972.635	7.543	0.237291	0.238900	0.225359	0.298450	
700000	-47963.107	7.530	0.237291	0.238900	0.225359	0.298450	
701000	-47929.880	7.664	0.237291	0.238900	0.225359	0.298450	
702000	-47926.437	7.663	0.230573	0.231957	0.224884	0.312586	
703000	-47904.540	7.641	0.230573	0.231957	0.224884	0.312586	
704000	-47906.238	7.690	0.230573	0.231957	0.224884	0.312586	
705000	-47906.368	7.710	0.234211	0.233789	0.228405	0.303595	
706000	-47873.927	7.650	0.223024	0.232815	0.227302	0.316859	
707000	-47880.484	7.756	0.232333	0.240811	0.214814	0.312043	
708000	-47863.663	7.799	0.233307	0.228218	0.229448	0.309026	
709000	-47725.141	7.847	0.230823	0.237431	0.228333	0.303413	
710000	-47699.560	7.818	0.230823	0.237431	0.228333	0.303413	
711000	-47697.244	7.777	0.230823	0.237431	0.228333	0.303413	
712000	-47661.797	7.771	0.230823	0.237431	0.228333	0.303413	
713000	-47625.158	7.746	0.230823	0.237431	0.228333	0.303413	
714000	-47604.458	7.711	0.230823	0.237431	0.228333	0.303413	
715000	-47608.444	7.655	0.230823	0.237431	0.228333	0.303413	
716000	-47593.865	7.566	0.230823	0.237431	0.228333	0.303413	
717000	-47599.925	7.567	0.230823	0.237431	0.228333	0.303413	
718000	-47579.282	7.498	0.230823	0.237431	0.228333	0.303413	
719000	-47573.560	7.530	0.226773	0.241680	0.233416	0.298130	
720000	-47566.630	7.495	0.224557	0.245779	0.236200	0.293464	
721000	-47561.305	7.459	0.228434	0.241983	0.219952	0.309631	
722000	-47562.663	7.465	0.226007	0.246510	0.231380	0.296103	
723000	-47572.173	7.469	0.226007	0.246510	0.231380	0.296103	
724000	-47553.342	7.547	0.225425	0.238883	0.232654	0.303037	
725000	-47565.238	7.516	0.230933	0.239941	0.225218	0.303909	
726000	-47545.207	7.446	0.236207	0.235026	0.236522	0.292245	
727000	-47564.832	7.444	0.236207	0.235026	0.236522	0.292245	
728000	-47537.505	7.456	0.227468	0.233822	0.231587	0.307122	
729000	-47539.894	7.522	0.227468	0.233822	0.231587	0.307122	
730000	-47555.992	7.475	0.228377	0.234348	0.236268	0.301007	
731000	-47548.605	7.467	0.227987	0.235711	0.233509	0.302793	
732000	-47561.467	7.423	0.228705	0.236624	0.229573	0.305097	
733000	-47567.509	7.477	0.228705	0.236624	0.229573	0.305097	
734000	-47587.837	7.503	0.224278	0.248184	0.229703	0.297835	
735000	-47592.459	7.489	0.227799	0.245714	0.236358	0.290129	
736000	-47578.868	7.448	0.235921	0.232466	0.230701	0.300911	
737000	-47581.336	7.458	0.235921	0.232466	0.230701	0.300911	
738000	-47558.346	7.430	0.234205	0.236657	0.225735	0.303402	
739000	-47547.040	7.500	0.234641	0.244301	0.220932	0.300126	
740000	-47530.633	7.476	0.225129	0.240653	0.231168	0.303050	
741000	-47542.996	7.443	0.231153	0.245913	0.225852	0.297082	
742000	-47531.891	7.358	0.231153	0.245913	0.225852	0.297082	
743000	-47536.509	7.442	0.225719	0.249199	0.222949	0.302133	
744000	-47535.435	7.431	0.230227	0.247096	0.220359	0.302318	
745000	-47526.742	7.428	0.225756	0.243933	0.236480	0.293831	
746000	-47536.200	7.451	0.225756	0.243933	0.236480	0.293831	
747000	-47516.345	7.478	0.234639	0.241873	0.227995	0.295493	
748000	-47518.023	7.457	0.234639	0.241873	0.227995	0.295493	
749000	-47522.036	7.432	0.234639	0.241873	0.227995	0.295493	
750000	-47505.540	7.377	0.234639	0.241873	0.227995	0.295493	
751000	-47489.406	7.380	0.234639	0.241873	0.227995	0.295493	
752000	-47484.386	7.365	0.223458	0.245933	0.230434	0.300176	
753000	-47507.416	7.390	0.223458	0.245933	0.230434	0.300176	
754000	-47527.068	7.438	0.230845	0.245417	0.236436	0.287303	
755000	-47506.790	7.451	0.230845	0.245417	0.236436	0.287303	
756000	-47504.659	7.437	0.228979	0.249546	0.228389	0.293086	
757000	-47531.366	7.407	0.228979	0.249546	0.228389	0.293086	
758000	-47531.883	7.383	0.228979	0.249546	0.228389	0.293086	
759000	-47514.528	7.397	0.228979	0.249546	0.228389	0.293086	
760000	-47513.175	7.393	0.228485	0.245249	0.232984	0.293282	
761000	-47504.558	7.395	0.229906	0.235853	0.227838	0.306403	
762000	-47522.618	7.432	0.229906	0.235853	0.227838	0.306403	
763000	-47524.239	7.451	0.225325	0.240908	0.223786	0.309981	
764000	-47510.899	7.452	0.223874	0.242746	0.233505	0.299874	
765000	-47519.098	7.422	0.227535	0.238299	0.232942	0.301223	
766000	-47531.078	7.448	0.227535	0.238299	0.232942	0.301223	
767000	-47530.983	7.440	0.227228	0.235746	0.232651	0.304375	
768000	-47540.533	7.485	0.227228	0.235746	0.232651	0.304375	
769000	-47531.430	7.465	0.227228	0.235746	0.232651	0.304375	
770000	-47500.685	7.409	0.238011	0.235539	0.231085	0.295365	
771000	-47493.759	7.455	0.238011	0.235539	0.231085	0.295365	
772000	-47487.323	7.392	0.234430	0.250633	0.220112	0.294824	
773000	-47478.882	7.392	0.230663	0.242327	0.233803	0.293207	
774000	-47466.892	7.371	0.225186	0.240388	0.229514	0.304912	
775000	-47452.817	7.381	0.231473	0.240474	0.228349	0.299704	
776000	-47458.384	7.423	0.234918	0.244339	0.226335	0.294408	
777000	-47480.093	7.423	0.226713	0.240896	0.225540	0.306851	
778000	-47459.746	7.398	0.225861	0.237527	0.233899	0.302713	
779000	-47450.138	7.398	0.225861	0.237527	0.233899	0.302713	
780000	-47449.580	7.340	0.236101	0.241650	0.221358	0.300892	
781000	-47462.340	7.385	0.236101	0.241650	0.221358	0.300892	
782000	-47479.906	7.361	0.226834	0.250666	0.220206	0.302294	
783000	-47473.157	7.329	0.229926	0.252320	0.226624	0.291131	
784000	-47472.824	7.326	0.230409	0.237523	0.234112	0.297956	
785000	-47496.607	7.372	0.235501	0.237236	0.235045	0.292218	
786000	-47483.909	7.383	0.235501	0.237236	0.235045	0.292218	
787000	-47463.935	7.365	0.228064	0.236316	0.238496	0.297123	
788000	-47476.105	7.388	0.232281	0.245435	0.221710	0.300574	
789000	-47474.015	7.353	0.227939	0.242000	0.233972	0.296089	
790000	-47452.940	7.477	0.227939	0.242000	0.233972	0.296089	
791000	-47462.625	7.464	0.228795	0.247089	0.223919	0.300197	
792000	-47478.959	7.486	0.228795	0.247089	0.223919	0.300197	
793000	-47481.563	7.464	0.225498	0.240299	0.227937	0.306266	
794000	-47514.152	7.486	0.226500	0.251088	0.228089	0.294323	
795000	-47505.721	7.503	0.226500	0.251088	0.228089	0.294323	
796000	-47532.890	7.565	0.231479	0.241972	0.234872	0.291677	
797000	-47527.803	7.581	0.231479	0.241972	0.234872	0.291677	
798000	-47536.768	7.549	0.231479	0.241972	0.234872	0.291677	
799000	-47529.624	7.546	0.231479	0.241972	0.234872	0.291677	
800000	-47520.605	7.517	0.231479	0.241972	0.234872	0.291677	
801000	-47524.217	7.526	0.231479	0.241972	0.234872	0.291677	
802000	-47501.436	7.511	0.231479	0.241972	0.234872	0.291677	
803000	-47493.953	7.512	0.231479	0.241972	0.234872	0.291677	
804000	-47487.445	7.528	0.231479	0.241972	0.234872	0.291677	
805000	-47481.779	7.528	0.234198	0.236296	0.227833	0.301673	
806000	-47472.040	7.483	0.225161	0.239216	0.226274	0.309348	
807000	-47484.151	7.430	0.229683	0.239705	0.224506	0.306106	
808000	-47482.768	7.364	0.229432	0.232240	0.230322	0.308006	
809000	-47485.641	7.342	0.219171	0.240748	0.232513	0.307568	
810000	-47472.831	7.322	0.236515	0.250568	0.225150	0.287767	
811000	-47501.896	7.333	0.230891	0.250276	0.231851	0.286982	
812000	-47500.552	7.343	0.232567	0.242547	0.222723	0.302162	
813000	-47468.990	7.336	0.232567	0.242547	0.222723	0.302162	
814000	-47485.277	7.360	0.232567	0.242547	0.222723	0.302162	
815000	-47498.858	7.364	0.224753	0.249654	0.230765	0.294829	
816000	-47499.449	7.322	0.228211	0.242297	0.229711	0.299781	
817000	-47503.138	7.416	0.227204	0.241519	0.231429	0.299848	
818000	-47500.850	7.374	0.235098	0.237970	0.228301	0.298632	
819000	-47498.004	7.315	0.235098	0.237970	0.228301	0.298632	
820000	-47504.382	7.325	0.235098	0.237970	0.228301	0.298632	
821000	-47512.113	7.294	0.235098	0.237970	0.228301	0.298632	
822000	-47512.337	7.304	0.234840	0.242871	0.236854	0.285435	
823000	-47511.009	7.325	0.230936	0.235285	0.231313	0.302466	
824000	-47496.307	7.364	0.230936	0.235285	0.231313	0.302466	
825000	-47480.238	7.366	0.230936	0.235285	0.231313	0.302466	
826000	-47484.440	7.363	0.230936	0.235285	0.231313	0.302466	
827000	-47467.444	7.396	0.230936	0.235285	0.231313	0.302466	
828000	-47466.517	7.406	0.233867	0.235189	0.227954	0.302991	
829000	-47479.677	7.410	0.225969	0.246493	0.222425	0.305113	
830000	-47498.079	7.411	0.224555	0.243624	0.233630	0.298190	
831000	-47482.852	7.410	0.229476	0.236460	0.232382	0.301682	
832000	-47457.423	7.393	0.236102	0.243631	0.223042	0.297226	
833000	-47454.426	7.386	0.240371	0.245619	0.223483	0.290528	
834000	-47439.729	7.365	0.240371	0.245619	0.223483	0.290528	
835000	-47446.413	7.388	0.240371	0.245619	0.223483	0.290528	
836000	-47429.743	7.411	0.231399	0.244496	0.235708	0.288397	
837000	-47422.642	7.370	0.233378	0.245721	0.228549	0.292352	
838000	-47423.834	7.394	0.233378	0.245721	0.228549	0.292352	
839000	-47427.997	7.390	0.231569	0.242436	0.230444	0.295552	
840000	-47412.292	7.351	0.231569	0.242436	0.230444	0.295552	
841000	-47432.614	7.396	0.231569	0.242436	0.230444	0.295552	
842000	-47427.114	7.392	0.231569	0.242436	0.230444	0.295552	
843000	-47452.096	7.367	0.231569	0.242436	0.230444	0.295552	
844000	-47465.286	7.400	0.231569	0.242436	0.230444	0.295552	
845000	-47477.355	7.403	0.231569	0.242436	0.230444	0.295552	
846000	-47474.174	7.416	0.234080	0.245884	0.229842	0.290194	
847000	-47455.883	7.390	0.230126	0.237971	0.229811	0.302091	
848000	-47454.186	7.328	0.233799	0.247488	0.228634	0.290079	
849000	-47480.182	7.333	0.233799	0.247488	0.228634	0.290079	
850000	-47472.082	7.319	0.233799	0.247488	0.228634	0.290079	
851000	-47476.364	7.378	0.234133	0.246254	0.231167	0.288445	
852000	-47475.245	7.390	0.223761	0.247475	0.231642	0.297122	
853000	-47480.431	7.359	0.223761	0.247475	0.231642	0.297122	
854000	-47447.483	7.380	0.223761	0.247475	0.231642	0.297122	
855000	-47436.264	7.404	0.226896	0.248194	0.234798	0.290112	
856000	-47442.567	7.455	0.233116	0.243668	0.227757	0.295459	
857000	-47456.222	7.458	0.233116	0.243668	0.227757	0.295459	
858000	-47437.330	7.410	0.232003	0.245827	0.228564	0.293606	
859000	-47462.085	7.435	0.232003	0.245827	0.228564	0.293606	
860000	-47450.996	7.421	0.232003	0.245827	0.228564	0.293606	
861000	-47458.602	7.401	0.232003	0.245827	0.228564	0.293606	
862000	-47426.683	7.353	0.232003	0.245827	0.228564	0.293606	
863000	-47429.145	7.345	0.232003	0.245827	0.228564	0.293606	
864000	-47430.896	7.273	0.236591	0.241287	0.227233	0.294889	
865000	-47414.038	7.234	0.236591	0.241287	0.227233	0.294889	
866000	-47420.907	7.254	0.230366	0.248218	0.223468	0.297948	
867000	-47416.266	7.266	0.232721	0.241348	0.231671	0.294260	
868000	-47432.674	7.270	0.232721	0.241348	0.231671	0.294260	
869000	-47424.037	7.252	0.232648	0.238871	0.232074	0.296407	
870000	-47446.165	7.257	0.227380	0.241531	0.225487	0.305603	
871000	-47432.031	7.245	0.226318	0.250948	0.232665	0.290070	
872000	-47434.173	7.354	0.238352	0.237191	0.227771	0.296685	
873000	-47426.081	7.342	0.238352	0.237191	0.227771	0.296685	
874000	-47437.246	7.386	0.238352	0.237191	0.227771	0.296685	
875000	-47435.554	7.404	0.238352	0.237191	0.227771	0.296685	
876000	-47428.611	7.393	0.228542	0.240582	0.226526	0.304350	
877000	-47436.893	7.377	0.228542	0.240582	0.226526	0.304350	
878000	-47440.807	7.320	0.225007	0.236138	0.240065	0.298789	
879000	-47439.533	7.332	0.235510	0.235994	0.231263	0.297234	
880000	-47429.289	7.284	0.232178	0.247630	0.221661	0.298531	
881000	-47446.152	7.342	0.224633	0.245194	0.228153	0.302021	
882000	-47445.728	7.322	0.231192	0.235804	0.233128	0.299876	
883000	-47427.795	7.357	0.231192	0.235804	0.233128	0.299876	
884000	-47407.530	7.370	0.229296	0.245651	0.232607	0.292446	
885000	-47407.328	7.372	0.234627	0.243929	0.225360	0.296084	
886000	-47415.300	7.391	0.234627	0.243929	0.225360	0.296084	
887000	-47425.679	7.385	0.228659	0.238140	0.232065	0.301136	
888000	-47417.438	7.402	0.228659	0.238140	0.232065	0.301136	
889000	-47434.506	7.413	0.234517	0.237251	0.229032	0.299201	
890000	-47429.474	7.399	0.231084	0.244365	0.234628	0.289923	
891000	-47415.622	7.345	0.231084	0.244365	0.234628	0.289923	
892000	-47409.077	7.326	0.231084	0.244365	0.234628	0.289923	
893000	-47424.854	7.321	0.231084	0.244365	0.234628	0.289923	
894000	-47423.465	7.324	0.231084	0.244365	0.234628	0.289923	
895000	-47424.795	7.295	0.226671	0.247331	0.229404	0.296594	
896000	-47452.472	7.366	0.234391	0.241589	0.235102	0.288917	
897000	-47448.504	7.315	0.234391	0.241589	0.235102	0.288917	
898000	-47440.990	7.300	0.233944	0.237213	0.235415	0.293428	
899000	-47408.428	7.277	0.233944	0.237213	0.235415	0.293428	
900000	-47412.726	7.254	0.233944	0.237213	0.235415	0.293428	
901000	-47389.522	7.286	0.228742	0.245328	0.231532	0.294398	
902000	-47408.689	7.351	0.228742	0.245328	0.231532	0.294398	
903000	-47410.725	7.328	0.228742	0.245328	0.231532	0.294398	
904000	-47417.990	7.286	0.226389	0.241338	0.230677	0.301596	
905000	-47434.898	7.290	0.234631	0.236141	0.222257	0.306971	
906000	-47444.569	7.295	0.233518	0.250507	0.224196	0.291780	
907000	-47428.587	7.302	0.233623	0.246946	0.220373	0.299057	
908000	-47426.001	7.360	0.233623	0.246946	0.220373	0.299057	
909000	-47444.971	7.400	0.233623	0.246946	0.220373	0.299057	
910000	-47449.314	7.405	0.233623	0.246946	0.220373	0.299057	
911000	-47431.206	7.380	0.233623	0.246946	0.220373	0.299057	
912000	-47442.087	7.362	0.239530	0.245302	0.222089	0.293080	
913000	-47425.176	7.384	0.236075	0.234680	0.228938	0.300308	
914000	-47428.971	7.398	0.236075	0.234680	0.228938	0.300308	
915000	-47429.322	7.430	0.241646	0.239344	0.232315	0.286695	
916000	-47415.463	7.452	0.237068	0.242542	0.224660	0.295730	
917000	-47432.489	7.522	0.228674	0.237150	0.231742	0.302434	
918000	-47429.440	7.520	0.228674	0.237150	0.231742	0.302434	
919000	-47414.760	7.482	0.228674	0.237150	0.231742	0.302434	
920000	-47441.938	7.509	0.235970	0.234151	0.226680	0.303199	
921000	-47432.592	7.467	0.223041	0.241312	0.236248	0.299399	
922000	-47462.339	7.484	0.233510	0.234369	0.227446	0.304675	
923000	-47429.140	7.507	0.224867	0.234756	0.227852	0.312525	
924000	-47417.248	7.511	0.230356	0.233772	0.232522	0.303350	
925000	-47415.309	7.528	0.233689	0.241453	0.224415	0.300443	
926000	-47387.221	7.562	0.233689	0.241453	0.224415	0.300443	
927000	-47396.921	7.567	0.233689	0.241453	0.224415	0.300443	
928000	-47417.561	7.614	0.233689	0.241453	0.224415	0.300443	
929000	-47425.735	7.611	0.233689	0.241453	0.224415	0.300443	
930000	-47426.813	7.622	0.233689	0.241453	0.224415	0.300443	
931000	-47433.267	7.602	0.235182	0.236716	0.228239	0.299863	
932000	-47442.797	7.605	0.235182	0.236716	0.228239	0.299863	
933000	-47430.086	7.602	0.235182	0.236716	0.228239	0.299863	
934000	-47425.697	7.595	0.235182	0.236716	0.228239	0.299863	
935000	-47395.572	7.566	0.229805	0.248310	0.230644	0.291242	
936000	-47410.735	7.502	0.229805	0.248310	0.230644	0.291242	
937000	-47417.094	7.465	0.229805	0.248310	0.230644	0.291242	
938000	-47442.488	7.485	0.229805	0.248310	0.230644	0.291242	
939000	-47425.724	7.467	0.229805	0.248310	0.230644	0.291242	
940000	-47422.439	7.465	0.229805	0.248310	0.230644	0.291242	
941000	-47433.127	7.402	0.239162	0.231883	0.228585	0.300370	
942000	-47440.618	7.371	0.221526	0.242779	0.224311	0.311385	
943000	-47446.787	7.373	0.220630	0.247665	0.227091	0.304614	
944000	-47421.382	7.313	0.221879	0.248074	0.236523	0.293523	
945000	-47409.461	7.301	0.221879	0.248074	0.236523	0.293523	
946000	-47424.629	7.290	0.230815	0.249251	0.228744	0.291190	
947000	-47406.228	7.306	0.230815	0.249251	0.228744	0.291190	
948000	-47384.284	7.296	0.231504	0.235168	0.235341	0.297987	
949000	-47388.245	7.364	0.231504	0.235168	0.235341	0.297987	
950000	-47390.949	7.372	0.231504	0.235168	0.235341	0.297987	
951000	-47388.638	7.392	0.232866	0.245904	0.233308	0.287922	
952000	-47392.917	7.399	0.232866	0.245904	0.233308	0.287922	
953000	-47383.834	7.370	0.237825	0.243042	0.227059	0.292075	
954000	-47393.370	7.439	0.240140	0.235430	0.223767	0.300662	
955000	-47380.005	7.335	0.221538	0.245940	0.234441	0.298081	
956000	-47387.427	7.371	0.230927	0.242675	0.229222	0.297175	
957000	-47413.845	7.416	0.230927	0.242675	0.229222	0.297175	
958000	-47429.508	7.379	0.230927	0.242675	0.229222	0.297175	
959000	-47424.856	7.340	0.235820	0.241744	0.222305	0.300132	
960000	-47418.492	7.356	0.234370	0.242267	0.226377	0.296987	
961000	-47430.733	7.337	0.234370	0.242267	0.226377	0.296987	
962000	-47436.694	7.445	0.231865	0.243110	0.230179	0.294846	
963000	-47441.609	7.398	0.231865	0.243110	0.230179	0.294846	
964000	-47446.532	7.399	0.226510	0.241674	0.235122	0.296694	
965000	-47436.755	7.410	0.226510	0.241674	0.235122	0.296694	
966000	-47430.880	7.402	0.224346	0.237321	0.236230	0.302103	
967000	-47399.778	7.432	0.224346	0.237321	0.236230	0.302103	
968000	-47414.990	7.456	0.218565	0.241730	0.245124	0.294581	
969000	-47409.673	7.427	0.226935	0.237589	0.236080	0.299395	
970000	-47405.667	7.430	0.237509	0.239918	0.230051	0.292522	
971000	-47412.309	7.448	0.237509	0.239918	0.230051	0.292522	
972000	-47401.825	7.465	0.237509	0.239918	0.230051	0.292522	
973000	-47405.999	7.444	0.231693	0.242743	0.232270	0.293294	
974000	-47408.349	7.392	0.231693	0.242743	0.232270	0.293294	
975000	-47404.920	7.417	0.231693	0.242743	0.232270	0.293294	
976000	-47407.997	7.439	0.220490	0.239829	0.242402	0.297278	
977000	-47394.483	7.398	0.225490	0.241237	0.224991	0.308282	
978000	-47362.265	7.390	0.225490	0.241237	0.224991	0.308282	
979000	-47380.524	7.358	0.225490	0.241237	0.224991	0.308282	
980000	-47355.523	7.363	0.225490	0.241237	0.224991	0.308282	
981000	-47382.908	7.327	0.243345	0.242033	0.228880	0.285741	
982000	-47369.091	7.344	0.230459	0.247326	0.218011	0.304203	
983000	-47344.534	7.365	0.226508	0.236439	0.232128	0.304924	
984000	-47344.245	7.345	0.226508	0.236439	0.232128	0.304924	
985000	-47340.395	7.340	0.223191	0.243893	0.241619	0.291297	
986000	-47333.522	7.277	0.231015	0.254311	0.227848	0.286825	
987000	-47337.091	7.303	0.231015	0.254311	0.227848	0.286825	
988000	-47338.012	7.315	0.218580	0.246504	0.232839	0.302077	
989000	-47329.055	7.333	0.223463	0.240647	0.230757	0.305134	
990000	-47330.802	7.398	0.223701	0.248967	0.235370	0.291962	
991000	-47362.808	7.397	0.230706	0.241533	0.225016	0.302746	
992000	-47369.278	7.375	0.230706	0.241533	0.225016	0.302746	
993000	-47365.346	7.370	0.229944	0.236318	0.234730	0.299008	
994000	-47374.214	7.494	0.228969	0.239553	0.225468	0.306009	
995000	-47375.946	7.492	0.228969	0.239553	0.225468	0.306009	
996000	-47381.269	7.512	0.230307	0.239061	0.229625	0.301006	
997000	-47393.715	7.541	0.227779	0.246470	0.229668	0.296084	
998000	-47383.805	7.566	0.227779	0.246470	0.229668	0.296084	
999000	-47360.224	7.522	0.224617	0.237780	0.225790	0.311813	
1000000	-47367.440	7.508	0.225037	0.237906	0.230064	0.306993	
