[ID: 6942008593]
Gen	LnL	TL	pi(A)	pi(C)	pi(G)	pi(T)	
1	-338888.388	108.500	0.250000	0.250000	0.250000	0.250000	
1000	-315148.942	103.988	0.220888	0.196184	0.231585	0.351344	
2000	-300178.079	98.809	0.226926	0.214315	0.219152	0.339608	
3000	-285162.743	93.578	0.219937	0.214650	0.217615	0.347798	
4000	-271691.607	89.716	0.226926	0.214315	0.219152	0.339608	
5000	-260969.534	85.874	0.226175	0.213828	0.210155	0.349842	
6000	-251895.363	82.259	0.219937	0.214650	0.217615	0.347798	
7000	-243068.638	79.477	0.216578	0.209185	0.229544	0.344693	
8000	-233960.465	74.520	0.219937	0.214650	0.217615	0.347798	
9000	-226346.501	71.777	0.216955	0.211496	0.218844	0.352705	
10000	-219707.407	68.932	0.216955	0.211496	0.218844	0.352705	
11000	-212215.969	66.789	0.216955	0.211496	0.218844	0.352705	
12000	-206601.152	63.940	0.216955	0.211496	0.218844	0.352705	
13000	-201109.015	61.619	0.212109	0.217101	0.224911	0.345879	
14000	-195461.860	59.557	0.212109	0.217101	0.224911	0.345879	
15000	-189304.538	57.140	0.212109	0.217101	0.224911	0.345879	
16000	-183940.656	54.890	0.212109	0.217101	0.224911	0.345879	
17000	-179591.915	52.629	0.212109	0.217101	0.224911	0.345879	
18000	-175759.520	50.478	0.212109	0.217101	0.224911	0.345879	
19000	-171922.810	48.822	0.212109	0.217101	0.224911	0.345879	
20000	-167347.183	47.145	0.212109	0.217101	0.224911	0.345879	
21000	-163424.365	45.636	0.215515	0.216826	0.223154	0.344506	
22000	-160517.129	44.227	0.215515	0.216826	0.223154	0.344506	
23000	-157168.322	42.694	0.215515	0.216826	0.223154	0.344506	
24000	-153456.770	41.452	0.215515	0.216826	0.223154	0.344506	
25000	-150944.148	40.203	0.216825	0.216184	0.221723	0.345267	
26000	-148296.368	38.861	0.212041	0.223221	0.224449	0.340289	
27000	-145499.461	37.534	0.209599	0.219081	0.227195	0.344126	
28000	-144167.433	36.410	0.209599	0.219081	0.227195	0.344126	
29000	-142026.693	35.460	0.209599	0.219081	0.227195	0.344126	
30000	-139167.728	34.462	0.209599	0.219081	0.227195	0.344126	
31000	-137656.199	33.713	0.206212	0.227915	0.220152	0.345721	
32000	-135902.561	33.036	0.206212	0.227915	0.220152	0.345721	
33000	-133924.658	32.201	0.206212	0.227915	0.220152	0.345721	
34000	-132017.174	31.820	0.206212	0.227915	0.220152	0.345721	
35000	-130325.969	31.360	0.206212	0.227915	0.220152	0.345721	
36000	-128405.627	30.725	0.206212	0.227915	0.220152	0.345721	
37000	-126949.789	30.033	0.206212	0.227915	0.220152	0.345721	
38000	-125856.902	29.538	0.211772	0.223480	0.223566	0.341182	
39000	-124685.634	28.763	0.211772	0.223480	0.223566	0.341182	
40000	-122949.466	28.026	0.211772	0.223480	0.223566	0.341182	
41000	-121449.934	27.381	0.211772	0.223480	0.223566	0.341182	
42000	-120074.655	27.015	0.211772	0.223480	0.223566	0.341182	
43000	-118952.886	26.597	0.211772	0.223480	0.223566	0.341182	
44000	-117594.862	26.055	0.208423	0.235025	0.220953	0.335599	
45000	-116387.252	25.614	0.208423	0.235025	0.220953	0.335599	
46000	-114985.417	24.954	0.208423	0.235025	0.220953	0.335599	
47000	-113838.341	24.401	0.208423	0.235025	0.220953	0.335599	
48000	-112939.036	24.073	0.208423	0.235025	0.220953	0.335599	
49000	-111918.880	23.773	0.208423	0.235025	0.220953	0.335599	
50000	-110878.895	23.441	0.207602	0.230130	0.223093	0.339175	
51000	-110136.863	22.765	0.207602	0.230130	0.223093	0.339175	
52000	-109230.998	22.559	0.207602	0.230130	0.223093	0.339175	
53000	-108203.287	22.198	0.207602	0.230130	0.223093	0.339175	
54000	-107181.887	21.835	0.207602	0.230130	0.223093	0.339175	
55000	-106403.990	21.542	0.207602	0.230130	0.223093	0.339175	
56000	-105653.757	21.494	0.205131	0.230297	0.223098	0.341474	
57000	-104993.936	21.138	0.205131	0.230297	0.223098	0.341474	
58000	-104474.643	20.967	0.205131	0.230297	0.223098	0.341474	
59000	-103992.575	20.765	0.205131	0.230297	0.223098	0.341474	
60000	-103446.453	20.390	0.205131	0.230297	0.223098	0.341474	
61000	-102611.835	20.145	0.205131	0.230297	0.223098	0.341474	
62000	-102031.760	20.045	0.205131	0.230297	0.223098	0.341474	
63000	-101076.177	19.899	0.205131	0.230297	0.223098	0.341474	
64000	-100517.207	19.810	0.208780	0.234548	0.231598	0.325073	
65000	-99565.565	19.620	0.208780	0.234548	0.231598	0.325073	
66000	-98790.559	19.254	0.208780	0.234548	0.231598	0.325073	
67000	-98382.580	19.211	0.212210	0.232980	0.227307	0.327504	
68000	-97798.491	19.230	0.207922	0.230481	0.232832	0.328765	
69000	-96897.620	19.082	0.205644	0.237062	0.222810	0.334483	
70000	-96167.745	19.161	0.205644	0.237062	0.222810	0.334483	
71000	-95442.329	18.951	0.211732	0.230339	0.226893	0.331036	
72000	-94624.966	18.761	0.205235	0.225077	0.228248	0.341440	
73000	-93858.251	18.713	0.205235	0.225077	0.228248	0.341440	
74000	-93159.070	18.556	0.205235	0.225077	0.228248	0.341440	
75000	-92184.575	18.241	0.205235	0.225077	0.228248	0.341440	
76000	-91588.732	17.984	0.205235	0.225077	0.228248	0.341440	
77000	-91030.067	17.821	0.205235	0.225077	0.228248	0.341440	
78000	-90322.556	17.559	0.205235	0.225077	0.228248	0.341440	
79000	-89609.465	17.422	0.207617	0.222143	0.222583	0.347657	
80000	-89278.303	17.257	0.207617	0.222143	0.222583	0.347657	
81000	-88990.817	17.184	0.207617	0.222143	0.222583	0.347657	
82000	-88477.074	17.056	0.207617	0.222143	0.222583	0.347657	
83000	-88065.680	16.966	0.207617	0.222143	0.222583	0.347657	
84000	-87550.208	17.060	0.207617	0.222143	0.222583	0.347657	
85000	-87120.270	17.130	0.207617	0.222143	0.222583	0.347657	
86000	-86732.981	17.048	0.207617	0.222143	0.222583	0.347657	
87000	-86538.340	16.785	0.206136	0.224354	0.227692	0.341818	
88000	-86138.200	16.630	0.206136	0.224354	0.227692	0.341818	
89000	-85533.864	16.466	0.206136	0.224354	0.227692	0.341818	
90000	-85173.355	16.371	0.206136	0.224354	0.227692	0.341818	
91000	-84986.649	16.126	0.206136	0.224354	0.227692	0.341818	
92000	-84783.359	15.960	0.207954	0.225049	0.233703	0.333294	
93000	-84547.795	15.711	0.210628	0.227429	0.224591	0.337352	
94000	-84440.998	15.704	0.210628	0.227429	0.224591	0.337352	
95000	-83976.513	15.700	0.208186	0.223623	0.226842	0.341349	
96000	-83763.668	15.547	0.208186	0.223623	0.226842	0.341349	
97000	-83389.007	15.364	0.209019	0.223071	0.224960	0.342949	
98000	-83236.647	15.386	0.209019	0.223071	0.224960	0.342949	
99000	-83079.704	15.257	0.209019	0.223071	0.224960	0.342949	
100000	-82885.613	15.065	0.209019	0.223071	0.224960	0.342949	
101000	-82632.079	14.930	0.209019	0.223071	0.224960	0.342949	
102000	-82347.749	14.960	0.213044	0.231030	0.232749	0.323176	
103000	-82176.451	14.872	0.213452	0.224940	0.225347	0.336262	
104000	-81411.108	15.001	0.219370	0.225297	0.235134	0.320200	
105000	-80843.897	14.891	0.218212	0.227287	0.227839	0.326661	
106000	-80347.803	14.866	0.208839	0.230020	0.232400	0.328741	
107000	-79825.106	14.982	0.208839	0.230020	0.232400	0.328741	
108000	-79274.824	14.735	0.208839	0.230020	0.232400	0.328741	
109000	-78378.332	14.376	0.208839	0.230020	0.232400	0.328741	
110000	-77477.413	14.336	0.219076	0.227327	0.233303	0.320295	
111000	-76847.905	14.099	0.224120	0.233737	0.225979	0.316163	
112000	-76496.817	14.067	0.224120	0.233737	0.225979	0.316163	
113000	-76004.780	13.955	0.224120	0.233737	0.225979	0.316163	
114000	-75675.108	13.920	0.224120	0.233737	0.225979	0.316163	
115000	-74840.049	13.875	0.224120	0.233737	0.225979	0.316163	
116000	-74447.133	13.809	0.224120	0.233737	0.225979	0.316163	
117000	-74045.780	13.598	0.224120	0.233737	0.225979	0.316163	
118000	-73719.177	13.495	0.217406	0.229084	0.230787	0.322723	
119000	-73070.130	13.371	0.218123	0.231987	0.230638	0.319253	
120000	-72755.728	13.264	0.218123	0.231987	0.230638	0.319253	
121000	-72115.404	13.247	0.218123	0.231987	0.230638	0.319253	
122000	-71752.689	13.283	0.209033	0.227380	0.228641	0.334946	
123000	-71067.860	13.229	0.209033	0.227380	0.228641	0.334946	
124000	-70957.924	13.245	0.219053	0.229244	0.221911	0.329792	
125000	-70644.187	13.234	0.219053	0.229244	0.221911	0.329792	
126000	-70529.124	13.206	0.219053	0.229244	0.221911	0.329792	
127000	-70289.178	13.030	0.219053	0.229244	0.221911	0.329792	
128000	-70071.923	12.989	0.219053	0.229244	0.221911	0.329792	
129000	-69932.539	12.984	0.220600	0.229792	0.228862	0.320747	
130000	-69796.327	12.822	0.220600	0.229792	0.228862	0.320747	
131000	-69705.618	12.760	0.220600	0.229792	0.228862	0.320747	
132000	-69623.659	12.706	0.217102	0.226939	0.229024	0.326935	
133000	-69482.061	12.716	0.217102	0.226939	0.229024	0.326935	
134000	-69382.311	12.713	0.217102	0.226939	0.229024	0.326935	
135000	-69177.381	12.637	0.217102	0.226939	0.229024	0.326935	
136000	-68940.387	12.534	0.217102	0.226939	0.229024	0.326935	
137000	-68724.541	12.472	0.220560	0.225169	0.231306	0.322965	
138000	-68607.258	12.359	0.220560	0.225169	0.231306	0.322965	
139000	-68420.514	12.190	0.220560	0.225169	0.231306	0.322965	
140000	-68207.283	12.104	0.220560	0.225169	0.231306	0.322965	
141000	-68096.707	12.063	0.220560	0.225169	0.231306	0.322965	
142000	-67957.454	11.969	0.220560	0.225169	0.231306	0.322965	
143000	-67386.054	11.917	0.220560	0.225169	0.231306	0.322965	
144000	-67284.287	11.909	0.220560	0.225169	0.231306	0.322965	
145000	-67134.972	11.744	0.220560	0.225169	0.231306	0.322965	
146000	-67076.936	11.758	0.220560	0.225169	0.231306	0.322965	
147000	-66832.814	11.696	0.220560	0.225169	0.231306	0.322965	
148000	-66734.522	11.590	0.220560	0.225169	0.231306	0.322965	
149000	-66623.295	11.578	0.221542	0.234076	0.231082	0.313300	
150000	-66537.421	11.556	0.221542	0.234076	0.231082	0.313300	
151000	-66468.833	11.483	0.226445	0.231677	0.231068	0.310810	
152000	-66437.244	11.480	0.226445	0.231677	0.231068	0.310810	
153000	-66336.411	11.429	0.226445	0.231677	0.231068	0.310810	
154000	-66057.004	11.400	0.226445	0.231677	0.231068	0.310810	
155000	-65681.759	11.385	0.226445	0.231677	0.231068	0.310810	
156000	-65102.266	11.400	0.226445	0.231677	0.231068	0.310810	
157000	-64668.569	11.348	0.226445	0.231677	0.231068	0.310810	
158000	-64510.994	11.271	0.222254	0.225540	0.232082	0.320124	
159000	-64303.006	11.102	0.211081	0.238357	0.225037	0.325526	
160000	-64008.337	11.120	0.211081	0.238357	0.225037	0.325526	
161000	-63701.068	11.083	0.222469	0.224155	0.232066	0.321310	
162000	-63458.271	11.069	0.213614	0.231313	0.231097	0.323976	
163000	-63083.223	10.984	0.213614	0.231313	0.231097	0.323976	
164000	-62972.793	10.812	0.213614	0.231313	0.231097	0.323976	
165000	-62827.450	10.851	0.223761	0.233310	0.227304	0.315625	
166000	-62642.273	10.815	0.223761	0.233310	0.227304	0.315625	
167000	-62582.933	10.715	0.223761	0.233310	0.227304	0.315625	
168000	-62508.364	10.768	0.212507	0.235925	0.231260	0.320307	
169000	-62276.774	10.807	0.220158	0.234381	0.225387	0.320074	
170000	-62112.068	10.738	0.218211	0.231896	0.227992	0.321902	
171000	-62012.007	10.714	0.218211	0.231896	0.227992	0.321902	
172000	-61939.104	10.619	0.218211	0.231896	0.227992	0.321902	
173000	-61816.928	10.557	0.218211	0.231896	0.227992	0.321902	
174000	-61687.135	10.478	0.218211	0.231896	0.227992	0.321902	
175000	-61658.328	10.512	0.218211	0.231896	0.227992	0.321902	
176000	-61587.365	10.521	0.218211	0.231896	0.227992	0.321902	
177000	-61562.352	10.532	0.218211	0.231896	0.227992	0.321902	
178000	-61482.196	10.592	0.218211	0.231896	0.227992	0.321902	
179000	-61450.595	10.532	0.218211	0.231896	0.227992	0.321902	
180000	-61388.180	10.430	0.218211	0.231896	0.227992	0.321902	
181000	-61326.051	10.378	0.218211	0.231896	0.227992	0.321902	
182000	-61279.421	10.339	0.218211	0.231896	0.227992	0.321902	
183000	-61052.164	10.394	0.218211	0.231896	0.227992	0.321902	
184000	-60976.513	10.308	0.222437	0.235996	0.225917	0.315651	
185000	-60912.341	10.286	0.222437	0.235996	0.225917	0.315651	
186000	-60887.635	10.221	0.219165	0.232216	0.230576	0.318044	
187000	-60801.507	10.253	0.219165	0.232216	0.230576	0.318044	
188000	-60775.473	10.245	0.219165	0.232216	0.230576	0.318044	
189000	-60388.562	10.307	0.219165	0.232216	0.230576	0.318044	
190000	-60245.842	10.226	0.219165	0.232216	0.230576	0.318044	
191000	-59994.759	10.253	0.219165	0.232216	0.230576	0.318044	
192000	-59739.165	10.197	0.219165	0.232216	0.230576	0.318044	
193000	-59624.757	10.197	0.219165	0.232216	0.230576	0.318044	
194000	-59528.218	10.150	0.219165	0.232216	0.230576	0.318044	
195000	-59178.884	10.085	0.219165	0.232216	0.230576	0.318044	
196000	-58854.024	9.980	0.230147	0.235426	0.226337	0.308090	
197000	-58789.136	9.943	0.230147	0.235426	0.226337	0.308090	
198000	-58690.926	9.918	0.230147	0.235426	0.226337	0.308090	
199000	-58588.181	9.845	0.230147	0.235426	0.226337	0.308090	
200000	-58367.138	9.846	0.230147	0.235426	0.226337	0.308090	
201000	-58013.154	9.904	0.230147	0.235426	0.226337	0.308090	
202000	-57738.331	9.895	0.230147	0.235426	0.226337	0.308090	
203000	-57580.529	9.886	0.226759	0.228233	0.234746	0.310262	
204000	-57437.260	9.916	0.224034	0.238309	0.227817	0.309840	
205000	-57121.948	9.904	0.223557	0.237484	0.235739	0.303221	
206000	-56567.615	9.745	0.214988	0.230293	0.238502	0.316218	
207000	-56252.463	9.667	0.212668	0.241650	0.226768	0.318914	
208000	-56024.442	9.585	0.213006	0.238748	0.239399	0.308848	
209000	-55852.113	9.465	0.215188	0.241010	0.238081	0.305721	
210000	-55713.340	9.445	0.227972	0.230446	0.231786	0.309796	
211000	-55449.616	9.445	0.219399	0.237134	0.235114	0.308353	
212000	-55127.921	9.292	0.219399	0.237134	0.235114	0.308353	
213000	-55079.710	9.265	0.219399	0.237134	0.235114	0.308353	
214000	-54748.505	9.182	0.219399	0.237134	0.235114	0.308353	
215000	-54518.562	9.218	0.219399	0.237134	0.235114	0.308353	
216000	-54062.880	9.264	0.223614	0.223032	0.233550	0.319804	
217000	-53792.408	9.107	0.223834	0.229834	0.223785	0.322547	
218000	-53630.012	8.970	0.223471	0.235740	0.240400	0.300390	
219000	-53354.885	8.918	0.221171	0.237921	0.237561	0.303347	
220000	-53214.799	8.901	0.224940	0.243485	0.228336	0.303239	
221000	-53080.355	8.808	0.229687	0.225984	0.232840	0.311489	
222000	-52947.365	8.732	0.225519	0.239749	0.230213	0.304519	
223000	-52879.064	8.728	0.234753	0.230396	0.231691	0.303161	
224000	-52763.356	8.732	0.234753	0.230396	0.231691	0.303161	
225000	-52694.418	8.668	0.234753	0.230396	0.231691	0.303161	
226000	-52675.009	8.622	0.215174	0.240779	0.231853	0.312194	
227000	-52607.018	8.611	0.234866	0.234553	0.230255	0.300326	
228000	-52382.939	8.585	0.228383	0.233251	0.235708	0.302657	
229000	-52337.173	8.547	0.228383	0.233251	0.235708	0.302657	
230000	-52296.840	8.566	0.225138	0.232659	0.234003	0.308200	
231000	-52260.247	8.660	0.217581	0.231435	0.239947	0.311038	
232000	-52244.194	8.569	0.217581	0.231435	0.239947	0.311038	
233000	-52227.553	8.599	0.218209	0.241043	0.234419	0.306329	
234000	-52191.203	8.540	0.226885	0.232961	0.240919	0.299235	
235000	-52154.371	8.555	0.226885	0.232961	0.240919	0.299235	
236000	-52137.315	8.617	0.226885	0.232961	0.240919	0.299235	
237000	-52117.700	8.599	0.228480	0.233085	0.237356	0.301079	
238000	-52069.250	8.568	0.228013	0.238092	0.233347	0.300547	
239000	-52066.555	8.581	0.228013	0.238092	0.233347	0.300547	
240000	-52053.627	8.527	0.228013	0.238092	0.233347	0.300547	
241000	-52068.284	8.581	0.218591	0.242173	0.232041	0.307196	
242000	-52045.143	8.467	0.214204	0.239503	0.237765	0.308528	
243000	-52036.608	8.440	0.226050	0.236782	0.238894	0.298275	
244000	-52025.867	8.456	0.234417	0.237517	0.226122	0.301944	
245000	-52037.894	8.370	0.230363	0.239885	0.229677	0.300075	
246000	-52022.013	8.387	0.230363	0.239885	0.229677	0.300075	
247000	-52003.433	8.366	0.219361	0.244239	0.236577	0.299822	
248000	-51995.850	8.345	0.220371	0.234234	0.232185	0.313211	
249000	-51960.085	8.348	0.220933	0.235643	0.230630	0.312793	
250000	-51964.776	8.336	0.222284	0.234194	0.233610	0.309911	
251000	-51970.688	8.286	0.222284	0.234194	0.233610	0.309911	
252000	-51977.795	8.273	0.224177	0.238759	0.238310	0.298755	
253000	-51947.296	8.201	0.229076	0.227373	0.239561	0.303990	
254000	-51948.615	8.211	0.227163	0.231537	0.238587	0.302713	
255000	-51905.680	8.225	0.229042	0.241659	0.227396	0.301904	
256000	-51901.246	8.284	0.221933	0.233638	0.235635	0.308794	
257000	-51730.779	8.326	0.221933	0.233638	0.235635	0.308794	
258000	-51706.091	8.294	0.226623	0.241036	0.234216	0.298126	
259000	-51601.960	8.311	0.226004	0.232674	0.230109	0.311213	
260000	-51569.572	8.279	0.226004	0.232674	0.230109	0.311213	
261000	-51400.154	8.317	0.226004	0.232674	0.230109	0.311213	
262000	-51387.646	8.320	0.226004	0.232674	0.230109	0.311213	
263000	-51370.219	8.324	0.223184	0.238454	0.240472	0.297890	
264000	-51342.989	8.245	0.230059	0.240745	0.234980	0.294217	
265000	-51315.389	8.275	0.215507	0.236425	0.241762	0.306305	
266000	-51288.277	8.273	0.226783	0.224920	0.247770	0.300526	
267000	-51248.189	8.292	0.222848	0.231159	0.231556	0.314437	
268000	-51025.619	8.312	0.223378	0.241173	0.226278	0.309171	
269000	-50840.065	8.320	0.223906	0.229344	0.240033	0.306717	
270000	-50766.309	8.303	0.223906	0.229344	0.240033	0.306717	
271000	-50650.311	8.270	0.223906	0.229344	0.240033	0.306717	
272000	-50560.781	8.284	0.223139	0.240447	0.232343	0.304071	
273000	-50452.569	8.260	0.223139	0.240447	0.232343	0.304071	
274000	-50438.746	8.246	0.229065	0.232157	0.228377	0.310401	
275000	-50430.297	8.295	0.230514	0.234902	0.234741	0.299843	
276000	-50443.415	8.278	0.231860	0.225635	0.230230	0.312275	
277000	-50426.442	8.312	0.224822	0.239612	0.226651	0.308915	
278000	-50427.363	8.335	0.218938	0.239406	0.223697	0.317959	
279000	-50423.589	8.336	0.223146	0.228010	0.239153	0.309690	
280000	-50418.356	8.412	0.233669	0.228183	0.233534	0.304614	
281000	-50416.936	8.388	0.235839	0.224595	0.237943	0.301623	
282000	-50383.640	8.371	0.225821	0.233074	0.235797	0.305308	
283000	-50369.477	8.380	0.228821	0.238383	0.230639	0.302158	
284000	-50339.507	8.302	0.228821	0.238383	0.230639	0.302158	
285000	-50328.392	8.244	0.228188	0.233146	0.237330	0.301336	
286000	-50327.290	8.221	0.228188	0.233146	0.237330	0.301336	
287000	-50305.006	8.201	0.228188	0.233146	0.237330	0.301336	
288000	-50310.858	8.200	0.228188	0.233146	0.237330	0.301336	
289000	-50300.520	8.194	0.228188	0.233146	0.237330	0.301336	
290000	-50297.308	8.187	0.228188	0.233146	0.237330	0.301336	
291000	-50288.521	8.171	0.228188	0.233146	0.237330	0.301336	
292000	-50266.600	8.170	0.221286	0.233207	0.240971	0.304536	
293000	-50237.036	8.153	0.232863	0.231641	0.235240	0.300257	
294000	-50228.254	8.085	0.232863	0.231641	0.235240	0.300257	
295000	-50226.560	8.024	0.229123	0.236684	0.231092	0.303101	
296000	-50224.987	8.153	0.229123	0.236684	0.231092	0.303101	
297000	-50218.386	8.117	0.235287	0.223585	0.237330	0.303798	
298000	-50200.131	8.173	0.221786	0.239246	0.238621	0.300347	
299000	-50205.758	8.210	0.221786	0.239246	0.238621	0.300347	
300000	-50213.534	8.130	0.228018	0.231944	0.230895	0.309144	
301000	-50192.210	8.099	0.228289	0.234611	0.239600	0.297501	
302000	-50180.855	8.124	0.228289	0.234611	0.239600	0.297501	
303000	-50169.884	8.109	0.228289	0.234611	0.239600	0.297501	
304000	-50164.548	8.062	0.229135	0.239398	0.233735	0.297732	
305000	-50163.796	8.096	0.225063	0.233827	0.233825	0.307285	
306000	-50155.342	8.118	0.226534	0.233704	0.242963	0.296798	
307000	-50174.385	8.162	0.227170	0.234919	0.233417	0.304494	
308000	-50164.157	8.191	0.227170	0.234919	0.233417	0.304494	
309000	-50164.268	8.150	0.226938	0.235915	0.231467	0.305680	
310000	-50167.287	8.205	0.221783	0.233643	0.239315	0.305259	
311000	-50179.731	8.188	0.225276	0.230023	0.238713	0.305987	
312000	-50172.227	8.123	0.225276	0.230023	0.238713	0.305987	
313000	-50173.365	8.176	0.225276	0.230023	0.238713	0.305987	
314000	-50178.817	8.201	0.225825	0.230615	0.238359	0.305201	
315000	-50162.243	8.159	0.227690	0.236549	0.238024	0.297736	
316000	-50158.691	8.030	0.227690	0.236549	0.238024	0.297736	
317000	-50175.507	8.033	0.227442	0.232670	0.235331	0.304557	
318000	-50169.044	7.999	0.227442	0.232670	0.235331	0.304557	
319000	-50158.777	8.027	0.229083	0.231773	0.239695	0.299448	
320000	-50130.530	8.039	0.233081	0.229011	0.240215	0.297693	
321000	-50132.856	8.054	0.234674	0.236434	0.240430	0.288462	
322000	-50116.813	8.152	0.224502	0.237462	0.226367	0.311668	
323000	-50139.747	8.153	0.227626	0.239518	0.227712	0.305144	
324000	-50150.121	8.198	0.227626	0.239518	0.227712	0.305144	
325000	-50133.873	8.182	0.227626	0.239518	0.227712	0.305144	
326000	-50125.193	8.236	0.221503	0.225611	0.237819	0.315066	
327000	-50131.834	8.278	0.232769	0.229449	0.235073	0.302708	
328000	-50132.470	8.301	0.232769	0.229449	0.235073	0.302708	
329000	-50125.802	8.286	0.232769	0.229449	0.235073	0.302708	
330000	-50129.772	8.298	0.222071	0.232238	0.236386	0.309305	
331000	-50112.278	8.264	0.222071	0.232238	0.236386	0.309305	
332000	-50093.043	8.130	0.229672	0.231324	0.237983	0.301021	
333000	-50094.229	8.171	0.229672	0.231324	0.237983	0.301021	
334000	-50093.386	8.120	0.229672	0.231324	0.237983	0.301021	
335000	-50070.910	8.175	0.226055	0.236554	0.240308	0.297082	
336000	-50072.922	8.168	0.224789	0.230825	0.241393	0.302993	
337000	-50077.485	8.184	0.224789	0.230825	0.241393	0.302993	
338000	-50088.995	8.229	0.224789	0.230825	0.241393	0.302993	
339000	-50098.438	8.193	0.225190	0.236900	0.230478	0.307432	
340000	-50085.465	8.170	0.224452	0.228143	0.239756	0.307649	
341000	-50095.141	8.182	0.224452	0.228143	0.239756	0.307649	
342000	-50084.710	8.181	0.224452	0.228143	0.239756	0.307649	
343000	-50072.340	8.108	0.224452	0.228143	0.239756	0.307649	
344000	-50091.488	8.082	0.220459	0.237066	0.239910	0.302566	
345000	-50098.341	8.051	0.225446	0.235819	0.238459	0.300276	
346000	-50078.916	8.054	0.225446	0.235819	0.238459	0.300276	
347000	-50062.375	8.059	0.225446	0.235819	0.238459	0.300276	
348000	-50080.780	8.061	0.225446	0.235819	0.238459	0.300276	
349000	-50060.949	8.044	0.225446	0.235819	0.238459	0.300276	
350000	-50066.517	8.101	0.223250	0.234206	0.231928	0.310616	
351000	-50047.132	8.123	0.223250	0.234206	0.231928	0.310616	
352000	-50032.837	8.052	0.223250	0.234206	0.231928	0.310616	
353000	-50048.402	8.063	0.222795	0.228283	0.237967	0.310956	
354000	-50027.152	8.019	0.226688	0.231567	0.230968	0.310778	
355000	-50016.039	8.037	0.229911	0.229668	0.235197	0.305224	
356000	-50025.285	8.049	0.226116	0.234472	0.238761	0.300651	
357000	-50050.805	8.076	0.220089	0.234752	0.239753	0.305406	
358000	-50048.830	8.095	0.220089	0.234752	0.239753	0.305406	
359000	-50037.910	8.084	0.223234	0.242850	0.229957	0.303959	
360000	-50042.384	8.131	0.217676	0.244827	0.235915	0.301581	
361000	-50040.512	8.151	0.225944	0.238111	0.236479	0.299466	
362000	-49932.350	8.531	0.228569	0.239473	0.229983	0.301974	
363000	-49742.633	8.407	0.228569	0.239473	0.229983	0.301974	
364000	-49621.056	8.318	0.228569	0.239473	0.229983	0.301974	
365000	-49283.363	8.325	0.228569	0.239473	0.229983	0.301974	
366000	-49191.576	8.260	0.228569	0.239473	0.229983	0.301974	
367000	-49135.891	8.218	0.228569	0.239473	0.229983	0.301974	
368000	-49077.494	8.196	0.228569	0.239473	0.229983	0.301974	
369000	-48887.973	8.119	0.228569	0.239473	0.229983	0.301974	
370000	-48713.093	7.999	0.227440	0.245853	0.232570	0.294137	
371000	-48591.884	7.842	0.216583	0.246264	0.235923	0.301230	
372000	-48573.779	7.819	0.223051	0.241057	0.247717	0.288175	
373000	-48404.484	7.796	0.229601	0.239693	0.239953	0.290753	
374000	-48375.471	7.803	0.226815	0.236976	0.228357	0.307852	
375000	-48348.203	7.713	0.226815	0.236976	0.228357	0.307852	
376000	-48321.134	7.656	0.231671	0.241635	0.238550	0.288145	
377000	-48271.202	7.731	0.215419	0.250501	0.237349	0.296731	
378000	-48245.438	7.802	0.215419	0.250501	0.237349	0.296731	
379000	-48192.263	7.738	0.223381	0.250780	0.229248	0.296591	
380000	-48163.031	7.670	0.223381	0.250780	0.229248	0.296591	
381000	-48148.227	7.663	0.223381	0.250780	0.229248	0.296591	
382000	-48149.508	7.697	0.223381	0.250780	0.229248	0.296591	
383000	-48153.102	7.711	0.223855	0.237849	0.232815	0.305481	
384000	-48066.589	7.715	0.223855	0.237849	0.232815	0.305481	
385000	-48049.715	7.727	0.223855	0.237849	0.232815	0.305481	
386000	-47987.767	7.801	0.214764	0.241196	0.242393	0.301647	
387000	-47983.526	7.866	0.214764	0.241196	0.242393	0.301647	
388000	-47985.897	7.865	0.214764	0.241196	0.242393	0.301647	
389000	-47978.860	7.842	0.226514	0.237280	0.239707	0.296499	
390000	-47958.892	7.837	0.217442	0.239017	0.235325	0.308216	
391000	-47922.736	7.923	0.215117	0.250726	0.243536	0.290621	
392000	-47906.388	7.853	0.230336	0.238083	0.229654	0.301927	
393000	-47864.862	7.784	0.225111	0.235567	0.239918	0.299404	
394000	-47829.148	7.731	0.225111	0.235567	0.239918	0.299404	
395000	-47794.830	7.707	0.225111	0.235567	0.239918	0.299404	
396000	-47767.296	7.681	0.225111	0.235567	0.239918	0.299404	
397000	-47751.639	7.662	0.225894	0.244175	0.243936	0.285995	
398000	-47732.691	7.705	0.221495	0.244721	0.242004	0.291780	
399000	-47730.706	7.720	0.219031	0.242324	0.240669	0.297976	
400000	-47710.313	7.760	0.219031	0.242324	0.240669	0.297976	
401000	-47696.023	7.764	0.219031	0.242324	0.240669	0.297976	
402000	-47680.712	7.757	0.225302	0.246543	0.232506	0.295649	
403000	-47695.445	7.784	0.212700	0.244991	0.240204	0.302105	
404000	-47668.863	7.754	0.212700	0.244991	0.240204	0.302105	
405000	-47658.868	7.744	0.225630	0.238900	0.244395	0.291075	
406000	-47634.194	7.750	0.225630	0.238900	0.244395	0.291075	
407000	-47643.696	7.767	0.220516	0.245360	0.244807	0.289318	
408000	-47647.983	7.778	0.211679	0.241167	0.245448	0.301705	
409000	-47628.192	7.727	0.211528	0.245198	0.240602	0.302672	
410000	-47608.269	7.748	0.224497	0.245731	0.242168	0.287604	
411000	-47578.759	7.640	0.222725	0.234261	0.239816	0.303198	
412000	-47576.373	7.609	0.218945	0.244099	0.249906	0.287050	
413000	-47581.482	7.603	0.218945	0.244099	0.249906	0.287050	
414000	-47563.366	7.562	0.218945	0.244099	0.249906	0.287050	
415000	-47575.689	7.599	0.219133	0.248810	0.230645	0.301412	
416000	-47575.237	7.625	0.223180	0.247453	0.241851	0.287517	
417000	-47571.641	7.623	0.222122	0.239217	0.242835	0.295825	
418000	-47567.775	7.585	0.222122	0.239217	0.242835	0.295825	
419000	-47554.934	7.636	0.222122	0.239217	0.242835	0.295825	
420000	-47531.474	7.563	0.222122	0.239217	0.242835	0.295825	
421000	-47542.242	7.490	0.230733	0.242976	0.237371	0.288920	
422000	-47540.763	7.473	0.218074	0.248355	0.244019	0.289552	
423000	-47521.532	7.415	0.218074	0.248355	0.244019	0.289552	
424000	-47509.056	7.395	0.218074	0.248355	0.244019	0.289552	
425000	-47501.188	7.359	0.218074	0.248355	0.244019	0.289552	
426000	-47490.742	7.386	0.218074	0.248355	0.244019	0.289552	
427000	-47497.100	7.349	0.218074	0.248355	0.244019	0.289552	
428000	-47486.772	7.347	0.218074	0.248355	0.244019	0.289552	
429000	-47473.495	7.346	0.224108	0.251474	0.238286	0.286132	
430000	-47473.595	7.345	0.214891	0.252721	0.237313	0.295076	
431000	-47462.441	7.335	0.214891	0.252721	0.237313	0.295076	
432000	-47455.782	7.284	0.222969	0.249028	0.240892	0.287111	
433000	-47450.301	7.279	0.222969	0.249028	0.240892	0.287111	
434000	-47430.069	7.265	0.216671	0.241439	0.240351	0.301539	
435000	-47432.187	7.331	0.217086	0.247169	0.232897	0.302849	
436000	-47425.993	7.314	0.216667	0.256832	0.238854	0.287647	
437000	-47428.680	7.298	0.216667	0.256832	0.238854	0.287647	
438000	-47421.749	7.313	0.218142	0.241946	0.241570	0.298342	
439000	-47408.601	7.323	0.221776	0.241007	0.234083	0.303134	
440000	-47412.376	7.337	0.225253	0.244035	0.240143	0.290569	
441000	-47398.708	7.356	0.225862	0.243131	0.235748	0.295259	
442000	-47408.427	7.295	0.226095	0.253251	0.242644	0.278009	
443000	-47405.057	7.355	0.220589	0.250244	0.233291	0.295876	
444000	-47402.174	7.335	0.220589	0.250244	0.233291	0.295876	
445000	-47397.907	7.333	0.226178	0.240816	0.237046	0.295960	
446000	-47401.502	7.367	0.218034	0.237841	0.244651	0.299474	
447000	-47398.274	7.385	0.218034	0.237841	0.244651	0.299474	
448000	-47392.015	7.346	0.219554	0.251381	0.230988	0.298077	
449000	-47395.988	7.360	0.220463	0.246713	0.237596	0.295227	
450000	-47411.809	7.373	0.217131	0.245266	0.233296	0.304307	
451000	-47414.720	7.385	0.227564	0.239532	0.239282	0.293623	
452000	-47422.282	7.343	0.218833	0.252058	0.244041	0.285068	
453000	-47414.099	7.339	0.218833	0.252058	0.244041	0.285068	
454000	-47415.984	7.362	0.221695	0.245357	0.248128	0.284820	
455000	-47422.368	7.316	0.219903	0.247996	0.238158	0.293944	
456000	-47428.438	7.342	0.216127	0.245284	0.237105	0.301484	
457000	-47393.193	7.291	0.216903	0.245722	0.248441	0.288934	
458000	-47384.960	7.289	0.223627	0.248022	0.246066	0.282285	
459000	-47364.809	7.222	0.215793	0.250791	0.241213	0.292204	
460000	-47364.824	7.251	0.214690	0.245578	0.241586	0.298147	
461000	-47375.713	7.310	0.214690	0.245578	0.241586	0.298147	
462000	-47389.037	7.395	0.229334	0.242925	0.235580	0.292161	
463000	-47396.588	7.417	0.229334	0.242925	0.235580	0.292161	
464000	-47414.805	7.408	0.233001	0.248019	0.228560	0.290420	
465000	-47425.378	7.353	0.227942	0.243050	0.227360	0.301647	
466000	-47412.554	7.337	0.222076	0.243959	0.235761	0.298203	
467000	-47405.824	7.317	0.222076	0.243959	0.235761	0.298203	
468000	-47414.122	7.330	0.222076	0.243959	0.235761	0.298203	
469000	-47403.773	7.306	0.222076	0.243959	0.235761	0.298203	
470000	-47411.828	7.291	0.229468	0.245247	0.228494	0.296791	
471000	-47407.439	7.356	0.222551	0.238950	0.246944	0.291555	
472000	-47395.674	7.362	0.218062	0.250319	0.240495	0.291124	
473000	-47406.770	7.345	0.223159	0.242764	0.248872	0.285205	
474000	-47415.233	7.320	0.218420	0.247808	0.236076	0.297696	
475000	-47432.248	7.310	0.218860	0.250916	0.243183	0.287040	
476000	-47429.484	7.337	0.225090	0.242271	0.238252	0.294387	
477000	-47432.543	7.271	0.215036	0.241644	0.242417	0.300902	
478000	-47410.316	7.189	0.224710	0.241271	0.234284	0.299735	
479000	-47407.453	7.231	0.217772	0.245922	0.237161	0.299145	
480000	-47400.054	7.220	0.217772	0.245922	0.237161	0.299145	
481000	-47416.995	7.137	0.229793	0.246683	0.229535	0.293989	
482000	-47393.128	7.168	0.229793	0.246683	0.229535	0.293989	
483000	-47397.260	7.187	0.229017	0.237771	0.237629	0.295583	
484000	-47401.458	7.128	0.221043	0.255272	0.236424	0.287261	
485000	-47438.344	7.196	0.216404	0.251019	0.235836	0.296741	
486000	-47423.490	7.288	0.216404	0.251019	0.235836	0.296741	
487000	-47434.407	7.299	0.223110	0.243724	0.237535	0.295632	
488000	-47405.342	7.340	0.221985	0.246244	0.238893	0.292877	
489000	-47405.795	7.400	0.221985	0.246244	0.238893	0.292877	
490000	-47407.562	7.410	0.221941	0.248004	0.235049	0.295005	
491000	-47418.021	7.387	0.221941	0.248004	0.235049	0.295005	
492000	-47411.693	7.428	0.221941	0.248004	0.235049	0.295005	
493000	-47394.063	7.453	0.221941	0.248004	0.235049	0.295005	
494000	-47400.829	7.463	0.218882	0.244402	0.242388	0.294328	
495000	-47416.742	7.497	0.218882	0.244402	0.242388	0.294328	
496000	-47400.289	7.481	0.224617	0.241363	0.233619	0.300401	
497000	-47413.520	7.470	0.221989	0.240070	0.238538	0.299403	
498000	-47390.322	7.428	0.221989	0.240070	0.238538	0.299403	
499000	-47385.537	7.434	0.221989	0.240070	0.238538	0.299403	
500000	-47362.250	7.405	0.221989	0.240070	0.238538	0.299403	
501000	-47327.559	7.394	0.226269	0.233641	0.240865	0.299226	
502000	-47323.655	7.373	0.224326	0.246677	0.226022	0.302974	
503000	-47317.271	7.357	0.218537	0.241819	0.248306	0.291338	
504000	-47324.971	7.300	0.218537	0.241819	0.248306	0.291338	
505000	-47311.822	7.306	0.218537	0.241819	0.248306	0.291338	
506000	-47327.336	7.337	0.218537	0.241819	0.248306	0.291338	
507000	-47332.368	7.334	0.218537	0.241819	0.248306	0.291338	
508000	-47334.753	7.323	0.221815	0.245239	0.237961	0.294986	
509000	-47346.504	7.325	0.220934	0.248810	0.238413	0.291843	
510000	-47382.557	7.350	0.217310	0.247852	0.237156	0.297681	
511000	-47358.516	7.360	0.217310	0.247852	0.237156	0.297681	
512000	-47380.690	7.405	0.217310	0.247852	0.237156	0.297681	
513000	-47366.754	7.424	0.222554	0.250254	0.230431	0.296761	
514000	-47353.446	7.413	0.224251	0.241800	0.246911	0.287038	
515000	-47352.981	7.484	0.216452	0.235764	0.248950	0.298834	
516000	-47360.207	7.442	0.223337	0.241373	0.243933	0.291356	
517000	-47359.707	7.456	0.230026	0.242465	0.235455	0.292054	
518000	-47355.204	7.427	0.230026	0.242465	0.235455	0.292054	
519000	-47358.103	7.415	0.230026	0.242465	0.235455	0.292054	
520000	-47353.410	7.413	0.230317	0.241158	0.238005	0.290519	
521000	-47361.393	7.433	0.218680	0.243858	0.241868	0.295594	
522000	-47382.074	7.437	0.214102	0.246033	0.240792	0.299073	
523000	-47383.356	7.443	0.217636	0.244700	0.234625	0.303040	
524000	-47376.404	7.440	0.215368	0.246503	0.245144	0.292985	
525000	-47394.951	7.469	0.220989	0.249050	0.235926	0.294036	
526000	-47382.312	7.438	0.220989	0.249050	0.235926	0.294036	
527000	-47380.732	7.411	0.220989	0.249050	0.235926	0.294036	
528000	-47380.910	7.422	0.215436	0.243418	0.238194	0.302952	
529000	-47376.198	7.406	0.210175	0.245468	0.246986	0.297371	
530000	-47372.448	7.396	0.212257	0.253994	0.238724	0.295025	
531000	-47387.441	7.382	0.220931	0.256808	0.245182	0.277080	
532000	-47364.964	7.370	0.223149	0.254177	0.232134	0.290540	
533000	-47358.809	7.369	0.219804	0.242914	0.247243	0.290039	
534000	-47351.596	7.301	0.224352	0.249823	0.232667	0.293157	
535000	-47361.891	7.274	0.224352	0.249823	0.232667	0.293157	
536000	-47378.750	7.320	0.224352	0.249823	0.232667	0.293157	
537000	-47355.631	7.315	0.224352	0.249823	0.232667	0.293157	
538000	-47359.564	7.296	0.225955	0.252937	0.235231	0.285877	
539000	-47362.061	7.229	0.225955	0.252937	0.235231	0.285877	
540000	-47359.845	7.233	0.230785	0.240627	0.234346	0.294242	
541000	-47388.627	7.228	0.230785	0.240627	0.234346	0.294242	
542000	-47376.724	7.193	0.223129	0.254182	0.245610	0.277079	
543000	-47368.010	7.222	0.223129	0.254182	0.245610	0.277079	
544000	-47370.686	7.247	0.216454	0.251913	0.239307	0.292326	
545000	-47356.409	7.276	0.216454	0.251913	0.239307	0.292326	
546000	-47337.215	7.274	0.221700	0.244292	0.242506	0.291502	
547000	-47335.270	7.287	0.218398	0.247854	0.244215	0.289533	
548000	-47330.034	7.309	0.218398	0.247854	0.244215	0.289533	
549000	-47341.969	7.281	0.224457	0.246367	0.237979	0.291196	
550000	-47340.461	7.262	0.224457	0.246367	0.237979	0.291196	
551000	-47350.128	7.269	0.224457	0.246367	0.237979	0.291196	
552000	-47328.420	7.246	0.224457	0.246367	0.237979	0.291196	
553000	-47323.448	7.371	0.224457	0.246367	0.237979	0.291196	
554000	-47341.724	7.366	0.223654	0.250553	0.240035	0.285757	
555000	-47368.475	7.367	0.223654	0.250553	0.240035	0.285757	
556000	-47372.672	7.370	0.223654	0.250553	0.240035	0.285757	
557000	-47386.653	7.445	0.226854	0.243394	0.238028	0.291724	
558000	-47387.486	7.410	0.226854	0.243394	0.238028	0.291724	
559000	-47381.681	7.407	0.226854	0.243394	0.238028	0.291724	
560000	-47357.141	7.419	0.220592	0.248401	0.230238	0.300770	
561000	-47347.301	7.415	0.225918	0.244199	0.237616	0.292267	
562000	-47343.651	7.366	0.213512	0.249574	0.234890	0.302025	
563000	-47337.584	7.431	0.214385	0.245763	0.241006	0.298846	
564000	-47352.379	7.456	0.230503	0.246215	0.239561	0.283721	
565000	-47365.110	7.462	0.217567	0.245088	0.234244	0.303102	
566000	-47364.317	7.451	0.224015	0.241374	0.247651	0.286959	
567000	-47363.897	7.471	0.222609	0.243100	0.230632	0.303659	
568000	-47357.915	7.439	0.222171	0.238958	0.240751	0.298120	
569000	-47357.847	7.423	0.227983	0.245376	0.234112	0.292529	
570000	-47366.133	7.416	0.214410	0.242141	0.247796	0.295652	
571000	-47391.516	7.317	0.214410	0.242141	0.247796	0.295652	
572000	-47410.234	7.335	0.218252	0.252358	0.238502	0.290887	
573000	-47411.745	7.336	0.218252	0.252358	0.238502	0.290887	
574000	-47416.881	7.394	0.213583	0.248824	0.238924	0.298669	
575000	-47428.709	7.385	0.227028	0.239239	0.240652	0.293081	
576000	-47434.109	7.413	0.224558	0.240994	0.242175	0.292273	
577000	-47443.047	7.321	0.227146	0.252407	0.231929	0.288518	
578000	-47419.749	7.279	0.227146	0.252407	0.231929	0.288518	
579000	-47414.087	7.274	0.219625	0.251087	0.241453	0.287834	
580000	-47406.116	7.273	0.219625	0.251087	0.241453	0.287834	
581000	-47390.767	7.284	0.216901	0.248267	0.238936	0.295896	
582000	-47368.937	7.294	0.221584	0.247675	0.237868	0.292873	
583000	-47384.522	7.313	0.221584	0.247675	0.237868	0.292873	
584000	-47371.036	7.355	0.221584	0.247675	0.237868	0.292873	
585000	-47359.535	7.294	0.221584	0.247675	0.237868	0.292873	
586000	-47335.014	7.282	0.221584	0.247675	0.237868	0.292873	
587000	-47339.101	7.248	0.221584	0.247675	0.237868	0.292873	
588000	-47322.443	7.314	0.221584	0.247675	0.237868	0.292873	
589000	-47344.939	7.318	0.221584	0.247675	0.237868	0.292873	
590000	-47351.564	7.354	0.223906	0.250141	0.235134	0.290819	
591000	-47332.363	7.323	0.223906	0.250141	0.235134	0.290819	
592000	-47350.091	7.308	0.223906	0.250141	0.235134	0.290819	
593000	-47344.694	7.306	0.223906	0.250141	0.235134	0.290819	
594000	-47341.375	7.294	0.223780	0.240417	0.235128	0.300676	
595000	-47356.398	7.332	0.223780	0.240417	0.235128	0.300676	
596000	-47343.050	7.329	0.223780	0.240417	0.235128	0.300676	
597000	-47324.115	7.344	0.229073	0.242979	0.234498	0.293450	
598000	-47313.999	7.357	0.229073	0.242979	0.234498	0.293450	
599000	-47314.081	7.328	0.223880	0.250161	0.233070	0.292890	
600000	-47318.601	7.351	0.223880	0.250161	0.233070	0.292890	
601000	-47318.530	7.370	0.223812	0.246787	0.242472	0.286929	
602000	-47317.445	7.351	0.223812	0.246787	0.242472	0.286929	
603000	-47315.048	7.344	0.223812	0.246787	0.242472	0.286929	
604000	-47298.531	7.316	0.225975	0.243279	0.244803	0.285943	
605000	-47305.249	7.296	0.224249	0.243080	0.235949	0.296722	
606000	-47306.834	7.325	0.224249	0.243080	0.235949	0.296722	
607000	-47329.697	7.291	0.227286	0.251162	0.241179	0.280373	
608000	-47317.749	7.257	0.218994	0.251635	0.236952	0.292420	
609000	-47325.429	7.278	0.218994	0.251635	0.236952	0.292420	
610000	-47306.104	7.278	0.218994	0.251635	0.236952	0.292420	
611000	-47298.514	7.258	0.218994	0.251635	0.236952	0.292420	
612000	-47310.970	7.266	0.218994	0.251635	0.236952	0.292420	
613000	-47299.863	7.271	0.218994	0.251635	0.236952	0.292420	
614000	-47301.266	7.252	0.218994	0.251635	0.236952	0.292420	
615000	-47328.391	7.283	0.218994	0.251635	0.236952	0.292420	
616000	-47310.268	7.224	0.218994	0.251635	0.236952	0.292420	
617000	-47317.675	7.223	0.223589	0.252228	0.237874	0.286309	
618000	-47336.684	7.318	0.223589	0.252228	0.237874	0.286309	
619000	-47345.582	7.381	0.223589	0.252228	0.237874	0.286309	
620000	-47326.023	7.347	0.220537	0.252184	0.242866	0.284413	
621000	-47333.070	7.395	0.218657	0.250084	0.243187	0.288072	
622000	-47341.756	7.387	0.225865	0.241229	0.231469	0.301437	
623000	-47362.442	7.383	0.217231	0.254037	0.237044	0.291688	
624000	-47347.355	7.343	0.220309	0.251724	0.237196	0.290771	
625000	-47363.517	7.324	0.220309	0.251724	0.237196	0.290771	
626000	-47365.660	7.329	0.220309	0.251724	0.237196	0.290771	
627000	-47357.661	7.298	0.231026	0.244226	0.233948	0.290799	
628000	-47352.872	7.309	0.222814	0.239956	0.242622	0.294608	
629000	-47351.374	7.349	0.217463	0.248253	0.234500	0.299784	
630000	-47358.068	7.339	0.217463	0.248253	0.234500	0.299784	
631000	-47338.841	7.326	0.231508	0.242278	0.233430	0.292784	
632000	-47335.372	7.350	0.225218	0.243760	0.249236	0.281786	
633000	-47326.170	7.292	0.228018	0.236877	0.235949	0.299156	
634000	-47310.212	7.271	0.232732	0.237750	0.237054	0.292464	
635000	-47316.945	7.277	0.224458	0.239020	0.238909	0.297613	
636000	-47332.603	7.356	0.224458	0.239020	0.238909	0.297613	
637000	-47339.545	7.376	0.224458	0.239020	0.238909	0.297613	
638000	-47342.580	7.383	0.211750	0.252682	0.238543	0.297025	
639000	-47339.594	7.436	0.221108	0.247605	0.239107	0.292180	
640000	-47318.027	7.427	0.223697	0.237791	0.244405	0.294107	
641000	-47332.784	7.404	0.221639	0.247478	0.239292	0.291590	
642000	-47328.714	7.404	0.228769	0.240690	0.236854	0.293686	
643000	-47319.270	7.345	0.230054	0.251072	0.233066	0.285808	
644000	-47322.008	7.351	0.230054	0.251072	0.233066	0.285808	
645000	-47317.016	7.302	0.226785	0.239603	0.243001	0.290611	
646000	-47329.780	7.314	0.226785	0.239603	0.243001	0.290611	
647000	-47346.318	7.318	0.226785	0.239603	0.243001	0.290611	
648000	-47368.875	7.346	0.224520	0.239474	0.242776	0.293229	
649000	-47345.366	7.365	0.228473	0.242065	0.243603	0.285859	
650000	-47322.559	7.321	0.230083	0.241798	0.235770	0.292349	
651000	-47320.962	7.286	0.225357	0.251698	0.229235	0.293710	
652000	-47310.027	7.269	0.220314	0.244431	0.233136	0.302119	
653000	-47311.606	7.270	0.220314	0.244431	0.233136	0.302119	
654000	-47314.915	7.284	0.220314	0.244431	0.233136	0.302119	
655000	-47321.781	7.280	0.220314	0.244431	0.233136	0.302119	
656000	-47325.288	7.299	0.220314	0.244431	0.233136	0.302119	
657000	-47326.895	7.256	0.220314	0.244431	0.233136	0.302119	
658000	-47342.335	7.285	0.220314	0.244431	0.233136	0.302119	
659000	-47319.281	7.265	0.225325	0.253503	0.231623	0.289549	
660000	-47299.386	7.268	0.232947	0.249670	0.232439	0.284943	
661000	-47312.350	7.276	0.232947	0.249670	0.232439	0.284943	
662000	-47318.380	7.319	0.234181	0.243648	0.238646	0.283525	
663000	-47292.796	7.275	0.234181	0.243648	0.238646	0.283525	
664000	-47291.620	7.243	0.214955	0.246392	0.239154	0.299500	
665000	-47266.079	7.189	0.223451	0.248035	0.236531	0.291983	
666000	-47265.258	7.186	0.223451	0.248035	0.236531	0.291983	
667000	-47277.603	7.223	0.223451	0.248035	0.236531	0.291983	
668000	-47280.167	7.307	0.223451	0.248035	0.236531	0.291983	
669000	-47282.170	7.310	0.223451	0.248035	0.236531	0.291983	
670000	-47267.874	7.354	0.227365	0.251101	0.232459	0.289075	
671000	-47289.809	7.372	0.218664	0.243382	0.236879	0.301076	
672000	-47322.398	7.394	0.220595	0.242344	0.233913	0.303147	
673000	-47321.387	7.400	0.227827	0.246876	0.235092	0.290205	
674000	-47319.445	7.433	0.217819	0.251207	0.240765	0.290210	
675000	-47342.315	7.431	0.224402	0.253531	0.238039	0.284027	
676000	-47343.785	7.374	0.224402	0.253531	0.238039	0.284027	
677000	-47328.551	7.310	0.224402	0.253531	0.238039	0.284027	
678000	-47314.475	7.299	0.224402	0.253531	0.238039	0.284027	
679000	-47294.170	7.321	0.216460	0.249512	0.238157	0.295871	
680000	-47298.874	7.297	0.216460	0.249512	0.238157	0.295871	
681000	-47325.066	7.314	0.225234	0.251518	0.239532	0.283715	
682000	-47324.054	7.323	0.225234	0.251518	0.239532	0.283715	
683000	-47304.073	7.317	0.227392	0.240666	0.236369	0.295572	
684000	-47311.929	7.333	0.227392	0.240666	0.236369	0.295572	
685000	-47324.165	7.262	0.227392	0.240666	0.236369	0.295572	
686000	-47298.213	7.223	0.227392	0.240666	0.236369	0.295572	
687000	-47304.491	7.276	0.227392	0.240666	0.236369	0.295572	
688000	-47304.187	7.276	0.227392	0.240666	0.236369	0.295572	
689000	-47289.512	7.271	0.227392	0.240666	0.236369	0.295572	
690000	-47295.588	7.270	0.227392	0.240666	0.236369	0.295572	
691000	-47299.361	7.264	0.224268	0.239979	0.238552	0.297202	
692000	-47316.221	7.272	0.224268	0.239979	0.238552	0.297202	
693000	-47314.509	7.214	0.224268	0.239979	0.238552	0.297202	
694000	-47318.489	7.238	0.220694	0.247585	0.236051	0.295670	
695000	-47296.562	7.265	0.220694	0.247585	0.236051	0.295670	
696000	-47315.628	7.268	0.220694	0.247585	0.236051	0.295670	
697000	-47316.830	7.278	0.215977	0.248963	0.247895	0.287166	
698000	-47337.814	7.310	0.217197	0.254184	0.242044	0.286575	
699000	-47339.127	7.350	0.219992	0.245434	0.237597	0.296977	
700000	-47341.373	7.370	0.219992	0.245434	0.237597	0.296977	
701000	-47344.902	7.374	0.230026	0.244244	0.235455	0.290274	
702000	-47325.031	7.337	0.230026	0.244244	0.235455	0.290274	
703000	-47323.710	7.326	0.230026	0.244244	0.235455	0.290274	
704000	-47303.481	7.268	0.217442	0.244626	0.239219	0.298713	
705000	-47295.477	7.207	0.231814	0.243119	0.243333	0.281734	
706000	-47289.492	7.202	0.230386	0.242293	0.244964	0.282357	
707000	-47308.906	7.257	0.215466	0.256940	0.244529	0.283064	
708000	-47332.965	7.266	0.227094	0.247496	0.230689	0.294722	
709000	-47340.521	7.296	0.226199	0.254316	0.236323	0.283162	
710000	-47332.255	7.332	0.226199	0.254316	0.236323	0.283162	
711000	-47338.473	7.304	0.216950	0.256154	0.247407	0.279489	
712000	-47340.760	7.335	0.231157	0.236957	0.238956	0.292930	
713000	-47339.210	7.332	0.231157	0.236957	0.238956	0.292930	
714000	-47325.892	7.305	0.229303	0.239364	0.232413	0.298919	
715000	-47318.720	7.287	0.229303	0.239364	0.232413	0.298919	
716000	-47320.354	7.365	0.229303	0.239364	0.232413	0.298919	
717000	-47327.829	7.399	0.229742	0.236879	0.234834	0.298544	
718000	-47321.178	7.353	0.229742	0.236879	0.234834	0.298544	
719000	-47329.472	7.415	0.229742	0.236879	0.234834	0.298544	
720000	-47319.586	7.410	0.229742	0.236879	0.234834	0.298544	
721000	-47326.954	7.412	0.227422	0.247703	0.239544	0.285331	
722000	-47309.947	7.367	0.227422	0.247703	0.239544	0.285331	
723000	-47316.239	7.386	0.227422	0.247703	0.239544	0.285331	
724000	-47310.213	7.393	0.227422	0.247703	0.239544	0.285331	
725000	-47324.190	7.363	0.227422	0.247703	0.239544	0.285331	
726000	-47311.033	7.359	0.227422	0.247703	0.239544	0.285331	
727000	-47299.857	7.366	0.227422	0.247703	0.239544	0.285331	
728000	-47316.086	7.382	0.227422	0.247703	0.239544	0.285331	
729000	-47326.689	7.387	0.221844	0.248872	0.231665	0.297618	
730000	-47345.112	7.395	0.221844	0.248872	0.231665	0.297618	
731000	-47320.348	7.353	0.227640	0.242945	0.237057	0.292358	
732000	-47316.558	7.375	0.227640	0.242945	0.237057	0.292358	
733000	-47311.078	7.331	0.227640	0.242945	0.237057	0.292358	
734000	-47318.076	7.437	0.219974	0.246669	0.245436	0.287921	
735000	-47322.253	7.404	0.226707	0.237051	0.231184	0.305059	
736000	-47295.632	7.372	0.226707	0.237051	0.231184	0.305059	
737000	-47289.233	7.336	0.217293	0.249144	0.238279	0.295284	
738000	-47307.390	7.321	0.230656	0.240447	0.235853	0.293044	
739000	-47305.324	7.329	0.230656	0.240447	0.235853	0.293044	
740000	-47324.028	7.327	0.230656	0.240447	0.235853	0.293044	
741000	-47329.330	7.372	0.224974	0.250028	0.230751	0.294247	
742000	-47342.983	7.436	0.224974	0.250028	0.230751	0.294247	
743000	-47317.974	7.429	0.224974	0.250028	0.230751	0.294247	
744000	-47312.961	7.426	0.224974	0.250028	0.230751	0.294247	
745000	-47329.638	7.455	0.228477	0.234889	0.240588	0.296047	
746000	-47339.402	7.473	0.228994	0.250184	0.234049	0.286773	
747000	-47330.952	7.504	0.223440	0.242649	0.235227	0.298684	
748000	-47319.577	7.497	0.223440	0.242649	0.235227	0.298684	
749000	-47310.822	7.484	0.223440	0.242649	0.235227	0.298684	
750000	-47291.102	7.457	0.228389	0.242094	0.232174	0.297343	
751000	-47303.284	7.492	0.223273	0.243654	0.236990	0.296083	
752000	-47305.388	7.454	0.223273	0.243654	0.236990	0.296083	
753000	-47293.556	7.433	0.221503	0.249011	0.234664	0.294822	
754000	-47317.135	7.470	0.221317	0.251492	0.233687	0.293504	
755000	-47290.636	7.410	0.221317	0.251492	0.233687	0.293504	
756000	-47279.823	7.381	0.221317	0.251492	0.233687	0.293504	
757000	-47264.613	7.402	0.224312	0.243038	0.235734	0.296916	
758000	-47271.469	7.386	0.223942	0.241767	0.234397	0.299893	
759000	-47290.028	7.447	0.223942	0.241767	0.234397	0.299893	
760000	-47279.743	7.362	0.223942	0.241767	0.234397	0.299893	
761000	-47282.926	7.366	0.224767	0.243140	0.233268	0.298825	
762000	-47292.741	7.385	0.224767	0.243140	0.233268	0.298825	
763000	-47267.819	7.365	0.224767	0.243140	0.233268	0.298825	
764000	-47285.405	7.351	0.224767	0.243140	0.233268	0.298825	
765000	-47279.470	7.316	0.225250	0.249487	0.240531	0.284732	
766000	-47283.896	7.389	0.225250	0.249487	0.240531	0.284732	
767000	-47295.973	7.389	0.220534	0.242318	0.243523	0.293625	
768000	-47281.004	7.340	0.220534	0.242318	0.243523	0.293625	
769000	-47300.386	7.341	0.228520	0.253450	0.238179	0.279851	
770000	-47273.623	7.348	0.225709	0.240099	0.239788	0.294404	
771000	-47278.033	7.321	0.225709	0.240099	0.239788	0.294404	
772000	-47309.458	7.322	0.225709	0.240099	0.239788	0.294404	
773000	-47294.475	7.348	0.225709	0.240099	0.239788	0.294404	
774000	-47291.844	7.391	0.225709	0.240099	0.239788	0.294404	
775000	-47312.309	7.430	0.217595	0.246800	0.235273	0.300331	
776000	-47327.511	7.421	0.217595	0.246800	0.235273	0.300331	
777000	-47331.507	7.397	0.217595	0.246800	0.235273	0.300331	
778000	-47339.548	7.417	0.222745	0.246233	0.240062	0.290960	
779000	-47349.956	7.416	0.222745	0.246233	0.240062	0.290960	
780000	-47333.412	7.374	0.222745	0.246233	0.240062	0.290960	
781000	-47336.952	7.357	0.222745	0.246233	0.240062	0.290960	
782000	-47342.154	7.332	0.222745	0.246233	0.240062	0.290960	
783000	-47318.709	7.370	0.223278	0.245059	0.234781	0.296881	
784000	-47329.082	7.411	0.223535	0.244280	0.243830	0.288356	
785000	-47334.911	7.440	0.222061	0.246491	0.247926	0.283522	
786000	-47337.996	7.487	0.219693	0.253869	0.234249	0.292190	
787000	-47337.293	7.488	0.229629	0.237173	0.239557	0.293641	
788000	-47340.658	7.478	0.229629	0.237173	0.239557	0.293641	
789000	-47342.075	7.489	0.219662	0.244262	0.234052	0.302023	
790000	-47363.131	7.523	0.221694	0.236389	0.240497	0.301420	
791000	-47337.073	7.498	0.224450	0.245917	0.237676	0.291957	
792000	-47342.468	7.493	0.224450	0.245917	0.237676	0.291957	
793000	-47338.082	7.537	0.224450	0.245917	0.237676	0.291957	
794000	-47336.975	7.580	0.224450	0.245917	0.237676	0.291957	
795000	-47329.055	7.468	0.224450	0.245917	0.237676	0.291957	
796000	-47307.365	7.438	0.224450	0.245917	0.237676	0.291957	
797000	-47312.205	7.472	0.221600	0.252816	0.241720	0.283864	
798000	-47318.185	7.490	0.222247	0.247278	0.232455	0.298020	
799000	-47321.926	7.496	0.221636	0.241011	0.240270	0.297083	
800000	-47313.850	7.475	0.218473	0.248868	0.237968	0.294691	
801000	-47317.798	7.457	0.218473	0.248868	0.237968	0.294691	
802000	-47315.523	7.373	0.218473	0.248868	0.237968	0.294691	
803000	-47333.416	7.330	0.218473	0.248868	0.237968	0.294691	
804000	-47329.649	7.310	0.218473	0.248868	0.237968	0.294691	
805000	-47322.340	7.243	0.220916	0.244016	0.239658	0.295410	
806000	-47301.321	7.278	0.220916	0.244016	0.239658	0.295410	
807000	-47276.663	7.324	0.220916	0.244016	0.239658	0.295410	
808000	-47270.809	7.319	0.220916	0.244016	0.239658	0.295410	
809000	-47265.010	7.289	0.220916	0.244016	0.239658	0.295410	
810000	-47260.272	7.285	0.220916	0.244016	0.239658	0.295410	
811000	-47253.521	7.275	0.220916	0.244016	0.239658	0.295410	
812000	-47229.996	7.224	0.218061	0.245489	0.238587	0.297863	
813000	-47226.060	7.250	0.218061	0.245489	0.238587	0.297863	
814000	-47257.781	7.257	0.223317	0.246749	0.244187	0.285747	
815000	-47269.213	7.207	0.223317	0.246749	0.244187	0.285747	
816000	-47265.432	7.209	0.225902	0.251110	0.241333	0.281655	
817000	-47245.761	7.223	0.219348	0.242168	0.236327	0.302158	
818000	-47256.379	7.288	0.224480	0.246408	0.240573	0.288539	
819000	-47242.040	7.235	0.224480	0.246408	0.240573	0.288539	
820000	-47254.037	7.252	0.219699	0.245735	0.244449	0.290117	
821000	-47253.416	7.243	0.219699	0.245735	0.244449	0.290117	
822000	-47252.411	7.279	0.227622	0.242549	0.243648	0.286181	
823000	-47272.090	7.315	0.227622	0.242549	0.243648	0.286181	
824000	-47276.730	7.301	0.216190	0.247739	0.235618	0.300453	
825000	-47274.811	7.304	0.216190	0.247739	0.235618	0.300453	
826000	-47265.825	7.309	0.216260	0.252887	0.240678	0.290175	
827000	-47262.184	7.272	0.225257	0.248172	0.245265	0.281306	
828000	-47250.388	7.307	0.220048	0.245761	0.235177	0.299014	
829000	-47228.919	7.315	0.223504	0.244643	0.242019	0.289833	
830000	-47233.361	7.269	0.223504	0.244643	0.242019	0.289833	
831000	-47206.690	7.248	0.223504	0.244643	0.242019	0.289833	
832000	-47172.603	7.269	0.228245	0.243151	0.234033	0.294571	
833000	-47177.139	7.352	0.228245	0.243151	0.234033	0.294571	
834000	-47168.144	7.339	0.228245	0.243151	0.234033	0.294571	
835000	-47171.938	7.334	0.228245	0.243151	0.234033	0.294571	
836000	-47185.875	7.393	0.217328	0.245536	0.242856	0.294280	
837000	-47189.001	7.432	0.218910	0.246423	0.238209	0.296458	
838000	-47186.010	7.440	0.218910	0.246423	0.238209	0.296458	
839000	-47195.447	7.437	0.218910	0.246423	0.238209	0.296458	
840000	-47208.542	7.480	0.218910	0.246423	0.238209	0.296458	
841000	-47214.245	7.473	0.224411	0.245535	0.242490	0.287564	
842000	-47223.212	7.443	0.223575	0.233710	0.237963	0.304752	
843000	-47173.483	7.425	0.227495	0.243372	0.240345	0.288788	
844000	-47165.809	7.436	0.227495	0.243372	0.240345	0.288788	
845000	-47154.632	7.446	0.216817	0.243215	0.241095	0.298873	
846000	-47163.599	7.390	0.216817	0.243215	0.241095	0.298873	
847000	-47138.938	7.411	0.216817	0.243215	0.241095	0.298873	
848000	-47136.011	7.412	0.216817	0.243215	0.241095	0.298873	
849000	-47158.699	7.381	0.219438	0.242958	0.236486	0.301117	
850000	-47148.202	7.340	0.219438	0.242958	0.236486	0.301117	
851000	-47146.200	7.323	0.217675	0.248754	0.249199	0.284371	
852000	-47142.698	7.306	0.230812	0.236473	0.242683	0.290032	
853000	-47151.942	7.316	0.225502	0.234836	0.237700	0.301962	
854000	-47141.331	7.336	0.219848	0.247369	0.244216	0.288567	
855000	-47164.698	7.315	0.219848	0.247369	0.244216	0.288567	
856000	-47171.301	7.348	0.224920	0.250228	0.236436	0.288415	
857000	-47178.697	7.298	0.224920	0.250228	0.236436	0.288415	
858000	-47191.306	7.326	0.226771	0.245925	0.240076	0.287228	
859000	-47193.377	7.335	0.226771	0.245925	0.240076	0.287228	
860000	-47188.189	7.296	0.226771	0.245925	0.240076	0.287228	
861000	-47211.944	7.316	0.226771	0.245925	0.240076	0.287228	
862000	-47213.712	7.300	0.225814	0.242683	0.244438	0.287065	
863000	-47247.159	7.348	0.224847	0.244686	0.238356	0.292111	
864000	-47245.250	7.385	0.224847	0.244686	0.238356	0.292111	
865000	-47210.256	7.435	0.224847	0.244686	0.238356	0.292111	
866000	-47193.732	7.433	0.224847	0.244686	0.238356	0.292111	
867000	-47199.867	7.329	0.222071	0.247081	0.237030	0.293819	
868000	-47215.537	7.425	0.224880	0.242088	0.236149	0.296883	
869000	-47191.104	7.398	0.224880	0.242088	0.236149	0.296883	
870000	-47205.856	7.369	0.218908	0.246239	0.242271	0.292582	
871000	-47218.500	7.413	0.218908	0.246239	0.242271	0.292582	
872000	-47211.720	7.366	0.228200	0.242050	0.241924	0.287826	
873000	-47198.521	7.343	0.219823	0.241865	0.245361	0.292951	
874000	-47186.907	7.300	0.219823	0.241865	0.245361	0.292951	
875000	-47190.789	7.326	0.219823	0.241865	0.245361	0.292951	
876000	-47183.573	7.326	0.221602	0.246364	0.242381	0.289653	
877000	-47173.997	7.344	0.217728	0.242442	0.245599	0.294231	
878000	-47168.752	7.357	0.217728	0.242442	0.245599	0.294231	
879000	-47152.671	7.345	0.218194	0.244235	0.236409	0.301163	
880000	-47149.630	7.326	0.227974	0.245995	0.244214	0.281817	
881000	-47164.091	7.402	0.221703	0.243797	0.246000	0.288499	
882000	-47178.084	7.412	0.216700	0.246452	0.237053	0.299794	
883000	-47151.570	7.404	0.225182	0.247858	0.238977	0.287984	
884000	-47147.818	7.415	0.223765	0.241423	0.241040	0.293772	
885000	-47131.000	7.341	0.223765	0.241423	0.241040	0.293772	
886000	-47126.773	7.300	0.223765	0.241423	0.241040	0.293772	
887000	-47131.825	7.291	0.223765	0.241423	0.241040	0.293772	
888000	-47148.941	7.306	0.223765	0.241423	0.241040	0.293772	
889000	-47138.343	7.280	0.219186	0.247896	0.236122	0.296796	
890000	-47142.872	7.261	0.218596	0.247669	0.240993	0.292741	
891000	-47138.101	7.244	0.218596	0.247669	0.240993	0.292741	
892000	-47146.928	7.225	0.223684	0.243982	0.243595	0.288739	
893000	-47143.822	7.162	0.223684	0.243982	0.243595	0.288739	
894000	-47137.703	7.258	0.221967	0.244353	0.235218	0.298462	
895000	-47154.994	7.248	0.221967	0.244353	0.235218	0.298462	
896000	-47155.028	7.179	0.221967	0.244353	0.235218	0.298462	
897000	-47158.129	7.213	0.221967	0.244353	0.235218	0.298462	
898000	-47155.187	7.187	0.216155	0.244423	0.233862	0.305560	
899000	-47162.100	7.229	0.222737	0.246772	0.241890	0.288601	
900000	-47164.355	7.176	0.221752	0.240464	0.241592	0.296192	
901000	-47189.484	7.203	0.216222	0.245489	0.235555	0.302734	
902000	-47169.376	7.285	0.220712	0.246237	0.244252	0.288799	
903000	-47156.969	7.331	0.223895	0.247538	0.239842	0.288725	
904000	-47156.533	7.333	0.223895	0.247538	0.239842	0.288725	
905000	-47183.106	7.307	0.223895	0.247538	0.239842	0.288725	
906000	-47178.527	7.315	0.228737	0.246242	0.235256	0.289766	
907000	-47192.242	7.366	0.228737	0.246242	0.235256	0.289766	
908000	-47186.503	7.356	0.229971	0.245127	0.234016	0.290886	
909000	-47213.047	7.381	0.229971	0.245127	0.234016	0.290886	
910000	-47225.340	7.388	0.229971	0.245127	0.234016	0.290886	
911000	-47218.482	7.408	0.229971	0.245127	0.234016	0.290886	
912000	-47208.965	7.316	0.217745	0.245481	0.240241	0.296533	
913000	-47208.061	7.347	0.226987	0.245728	0.235033	0.292252	
914000	-47206.683	7.306	0.230227	0.246918	0.240403	0.282451	
915000	-47173.979	7.293	0.220514	0.254065	0.235134	0.290286	
916000	-47171.309	7.290	0.228193	0.247996	0.232504	0.291308	
917000	-47166.926	7.332	0.226779	0.243358	0.238141	0.291721	
918000	-47179.129	7.336	0.223232	0.247650	0.238046	0.291072	
919000	-47186.314	7.380	0.223232	0.247650	0.238046	0.291072	
920000	-47173.010	7.328	0.223232	0.247650	0.238046	0.291072	
921000	-47162.719	7.333	0.223232	0.247650	0.238046	0.291072	
922000	-47158.090	7.314	0.223232	0.247650	0.238046	0.291072	
923000	-47143.923	7.246	0.228367	0.242928	0.236907	0.291798	
924000	-47140.230	7.240	0.228367	0.242928	0.236907	0.291798	
925000	-47174.179	7.260	0.220991	0.244878	0.234189	0.299942	
926000	-47162.429	7.306	0.220693	0.242370	0.241897	0.295041	
927000	-47169.425	7.346	0.220693	0.242370	0.241897	0.295041	
928000	-47168.452	7.358	0.222586	0.247381	0.238018	0.292016	
929000	-47144.621	7.329	0.222586	0.247381	0.238018	0.292016	
930000	-47156.875	7.353	0.222586	0.247381	0.238018	0.292016	
931000	-47147.362	7.322	0.222586	0.247381	0.238018	0.292016	
932000	-47135.487	7.314	0.220051	0.245198	0.246132	0.288619	
933000	-47139.482	7.276	0.220051	0.245198	0.246132	0.288619	
934000	-47162.352	7.273	0.220051	0.245198	0.246132	0.288619	
935000	-47159.706	7.274	0.220051	0.245198	0.246132	0.288619	
936000	-47168.551	7.201	0.220051	0.245198	0.246132	0.288619	
937000	-47169.165	7.188	0.220051	0.245198	0.246132	0.288619	
938000	-47170.011	7.239	0.218671	0.248118	0.236679	0.296532	
939000	-47164.498	7.211	0.218671	0.248118	0.236679	0.296532	
940000	-47176.046	7.226	0.218671	0.248118	0.236679	0.296532	
941000	-47186.104	7.249	0.218671	0.248118	0.236679	0.296532	
942000	-47155.716	7.279	0.218671	0.248118	0.236679	0.296532	
943000	-47145.514	7.300	0.218671	0.248118	0.236679	0.296532	
944000	-47148.003	7.340	0.218671	0.248118	0.236679	0.296532	
945000	-47131.454	7.324	0.218671	0.248118	0.236679	0.296532	
946000	-47111.178	7.286	0.229619	0.246608	0.242219	0.281553	
947000	-47097.929	7.303	0.229619	0.246608	0.242219	0.281553	
948000	-47113.159	7.318	0.227025	0.243642	0.234050	0.295283	
949000	-47109.413	7.344	0.227025	0.243642	0.234050	0.295283	
950000	-47121.668	7.326	0.227025	0.243642	0.234050	0.295283	
951000	-47121.022	7.320	0.230266	0.236763	0.237695	0.295276	
952000	-47121.223	7.328	0.228341	0.249265	0.228202	0.294193	
953000	-47139.591	7.333	0.228341	0.249265	0.228202	0.294193	
954000	-47132.293	7.363	0.235033	0.252532	0.232308	0.280126	
955000	-47104.157	7.305	0.228187	0.251753	0.238116	0.281944	
956000	-47111.570	7.323	0.228187	0.251753	0.238116	0.281944	
957000	-47122.625	7.358	0.231818	0.246812	0.228444	0.292926	
958000	-47130.751	7.354	0.212837	0.249447	0.244549	0.293167	
959000	-47134.946	7.366	0.219724	0.233033	0.242574	0.304669	
960000	-47146.254	7.398	0.213554	0.246643	0.240516	0.299287	
961000	-47158.620	7.394	0.222812	0.247149	0.232757	0.297281	
962000	-47171.754	7.416	0.222812	0.247149	0.232757	0.297281	
963000	-47169.575	7.409	0.222812	0.247149	0.232757	0.297281	
964000	-47165.278	7.351	0.232691	0.246538	0.231664	0.289107	
965000	-47175.194	7.410	0.225935	0.242750	0.237386	0.293929	
966000	-47158.566	7.413	0.225935	0.242750	0.237386	0.293929	
967000	-47162.494	7.415	0.225935	0.242750	0.237386	0.293929	
968000	-47145.057	7.415	0.227439	0.244293	0.244170	0.284098	
969000	-47146.841	7.443	0.230262	0.242408	0.232580	0.294750	
970000	-47129.166	7.438	0.230262	0.242408	0.232580	0.294750	
971000	-47132.436	7.394	0.230262	0.242408	0.232580	0.294750	
972000	-47109.562	7.394	0.230262	0.242408	0.232580	0.294750	
973000	-47126.079	7.381	0.230262	0.242408	0.232580	0.294750	
974000	-47125.040	7.401	0.225243	0.237852	0.248532	0.288373	
975000	-47130.232	7.421	0.220644	0.242023	0.240642	0.296692	
976000	-47127.195	7.419	0.220644	0.242023	0.240642	0.296692	
977000	-47146.968	7.407	0.220644	0.242023	0.240642	0.296692	
978000	-47123.170	7.447	0.220644	0.242023	0.240642	0.296692	
979000	-47153.495	7.477	0.229605	0.240253	0.242836	0.287307	
980000	-47149.880	7.451	0.227166	0.246509	0.237470	0.288854	
981000	-47146.118	7.469	0.227166	0.246509	0.237470	0.288854	
982000	-47156.549	7.457	0.217746	0.252137	0.240241	0.289875	
983000	-47150.126	7.476	0.217746	0.252137	0.240241	0.289875	
984000	-47150.065	7.433	0.215070	0.245987	0.241910	0.297034	
985000	-47153.573	7.370	0.215070	0.245987	0.241910	0.297034	
986000	-47166.849	7.392	0.227528	0.249932	0.228659	0.293882	
987000	-47150.735	7.360	0.223626	0.241031	0.240270	0.295074	
988000	-47158.976	7.395	0.232668	0.245911	0.231628	0.289793	
989000	-47139.698	7.379	0.223049	0.244131	0.235625	0.297195	
990000	-47122.601	7.371	0.223049	0.244131	0.235625	0.297195	
991000	-47137.160	7.299	0.226522	0.240530	0.243752	0.289196	
992000	-47134.233	7.363	0.226522	0.240530	0.243752	0.289196	
993000	-47116.666	7.349	0.222192	0.247619	0.240766	0.289422	
994000	-47138.433	7.365	0.221660	0.247827	0.242867	0.287646	
995000	-47120.488	7.345	0.221340	0.242077	0.247404	0.289178	
996000	-47113.914	7.343	0.224884	0.239460	0.237417	0.298239	
997000	-47096.120	7.350	0.215252	0.241838	0.240829	0.302080	
998000	-47098.198	7.363	0.226196	0.253163	0.236895	0.283746	
999000	-47078.761	7.318	0.215333	0.252039	0.237231	0.295397	
1000000	-47086.574	7.337	0.215333	0.252039	0.237231	0.295397	
