[ID: 6942008593]
Gen	LnL	TL	pi(A)	pi(C)	pi(G)	pi(T)	
1	-337807.452	108.498	0.250000	0.250000	0.250000	0.250000	
1000	-312616.387	104.356	0.224822	0.200372	0.213614	0.361192	
2000	-296056.267	98.341	0.210977	0.214843	0.218763	0.355416	
3000	-280784.262	92.798	0.232580	0.209423	0.207523	0.350474	
4000	-264993.451	87.588	0.232580	0.209423	0.207523	0.350474	
5000	-253720.970	84.469	0.228967	0.211902	0.214685	0.344446	
6000	-243725.145	80.885	0.223344	0.212779	0.206540	0.357337	
7000	-234977.717	77.164	0.223344	0.212779	0.206540	0.357337	
8000	-227109.280	73.934	0.220160	0.215697	0.213446	0.350697	
9000	-219947.280	70.929	0.220160	0.215697	0.213446	0.350697	
10000	-213415.954	67.570	0.220160	0.215697	0.213446	0.350697	
11000	-207926.702	65.151	0.220160	0.215697	0.213446	0.350697	
12000	-202751.146	62.064	0.220160	0.215697	0.213446	0.350697	
13000	-197273.804	59.668	0.220160	0.215697	0.213446	0.350697	
14000	-191543.095	57.170	0.220160	0.215697	0.213446	0.350697	
15000	-187981.438	54.882	0.206988	0.224400	0.220318	0.348294	
16000	-183541.576	52.738	0.206988	0.224400	0.220318	0.348294	
17000	-179065.846	50.951	0.212856	0.218591	0.223870	0.344683	
18000	-175516.307	49.324	0.209116	0.222433	0.227585	0.340866	
19000	-172103.518	47.121	0.212856	0.218591	0.223870	0.344683	
20000	-168032.534	46.415	0.209116	0.222433	0.227585	0.340866	
21000	-164586.317	44.817	0.209116	0.222433	0.227585	0.340866	
22000	-161650.102	43.435	0.209116	0.222433	0.227585	0.340866	
23000	-157900.229	42.041	0.209638	0.228981	0.216605	0.344776	
24000	-154382.047	40.535	0.209638	0.228981	0.216605	0.344776	
25000	-151297.234	39.186	0.209638	0.228981	0.216605	0.344776	
26000	-148429.545	38.248	0.209638	0.228981	0.216605	0.344776	
27000	-146341.750	37.171	0.209638	0.228981	0.216605	0.344776	
28000	-144573.352	36.511	0.209638	0.228981	0.216605	0.344776	
29000	-142515.529	35.638	0.209638	0.228981	0.216605	0.344776	
30000	-139887.702	34.729	0.209896	0.225195	0.222995	0.341914	
31000	-138116.350	33.778	0.209896	0.225195	0.222995	0.341914	
32000	-135985.519	32.600	0.214168	0.224975	0.229413	0.331444	
33000	-134225.796	31.788	0.214168	0.224975	0.229413	0.331444	
34000	-132751.441	31.128	0.216017	0.234663	0.218241	0.331079	
35000	-131608.971	30.575	0.216017	0.234663	0.218241	0.331079	
36000	-129786.489	29.673	0.216017	0.234663	0.218241	0.331079	
37000	-128389.682	29.228	0.216017	0.234663	0.218241	0.331079	
38000	-126997.658	28.590	0.209410	0.231156	0.222427	0.337008	
39000	-125723.265	28.085	0.209410	0.231156	0.222427	0.337008	
40000	-124773.106	27.262	0.209410	0.231156	0.222427	0.337008	
41000	-123623.154	26.507	0.215892	0.250634	0.223617	0.309857	
42000	-122875.360	25.959	0.208990	0.238855	0.217740	0.334415	
43000	-122280.802	25.297	0.211308	0.252898	0.219355	0.316439	
44000	-121639.291	24.936	0.204761	0.248867	0.234321	0.312052	
45000	-121027.066	24.515	0.209199	0.246375	0.224914	0.319511	
46000	-120299.704	24.255	0.209199	0.246375	0.224914	0.319511	
47000	-118355.626	24.661	0.207205	0.234019	0.229615	0.329161	
48000	-116229.816	24.362	0.209996	0.228688	0.222201	0.339116	
49000	-114392.372	24.035	0.214635	0.231638	0.222725	0.331002	
50000	-113437.407	23.684	0.214635	0.231638	0.222725	0.331002	
51000	-111531.000	23.295	0.214635	0.231638	0.222725	0.331002	
52000	-109694.508	23.275	0.204435	0.235629	0.234789	0.325147	
53000	-108872.941	22.890	0.213811	0.232213	0.220221	0.333755	
54000	-108017.016	22.848	0.207853	0.236279	0.231225	0.324644	
55000	-107009.300	22.281	0.207853	0.236279	0.231225	0.324644	
56000	-106035.238	21.860	0.207853	0.236279	0.231225	0.324644	
57000	-105391.138	21.501	0.207853	0.236279	0.231225	0.324644	
58000	-104439.298	21.249	0.207853	0.236279	0.231225	0.324644	
59000	-103678.635	20.980	0.207853	0.236279	0.231225	0.324644	
60000	-103129.570	20.692	0.207853	0.236279	0.231225	0.324644	
61000	-102369.188	20.286	0.207853	0.236279	0.231225	0.324644	
62000	-101603.105	20.107	0.207853	0.236279	0.231225	0.324644	
63000	-100462.222	19.738	0.207853	0.236279	0.231225	0.324644	
64000	-100071.644	19.559	0.207853	0.236279	0.231225	0.324644	
65000	-99758.358	19.301	0.207853	0.236279	0.231225	0.324644	
66000	-99153.178	19.293	0.207853	0.236279	0.231225	0.324644	
67000	-98526.829	18.931	0.211251	0.239426	0.229027	0.320297	
68000	-98227.302	18.752	0.211251	0.239426	0.229027	0.320297	
69000	-97820.140	18.631	0.211251	0.239426	0.229027	0.320297	
70000	-97509.155	18.490	0.203734	0.245326	0.231189	0.319751	
71000	-97285.628	18.358	0.203734	0.245326	0.231189	0.319751	
72000	-96891.547	18.096	0.203445	0.251282	0.234935	0.310338	
73000	-96592.989	17.876	0.203445	0.251282	0.234935	0.310338	
74000	-96247.682	18.084	0.207834	0.239043	0.235359	0.317764	
75000	-95873.422	17.916	0.207834	0.239043	0.235359	0.317764	
76000	-95507.410	17.817	0.207834	0.239043	0.235359	0.317764	
77000	-95081.548	17.505	0.207834	0.239043	0.235359	0.317764	
78000	-94452.037	17.404	0.207834	0.239043	0.235359	0.317764	
79000	-94144.353	17.310	0.207834	0.239043	0.235359	0.317764	
80000	-93737.349	17.067	0.207834	0.239043	0.235359	0.317764	
81000	-93568.342	16.938	0.207834	0.239043	0.235359	0.317764	
82000	-93231.452	16.821	0.207834	0.239043	0.235359	0.317764	
83000	-92893.151	16.738	0.207834	0.239043	0.235359	0.317764	
84000	-92581.094	16.535	0.207955	0.249666	0.235690	0.306689	
85000	-92057.898	16.252	0.207955	0.249666	0.235690	0.306689	
86000	-91490.060	16.141	0.207955	0.249666	0.235690	0.306689	
87000	-90677.509	16.060	0.207955	0.249666	0.235690	0.306689	
88000	-90442.975	16.000	0.207955	0.249666	0.235690	0.306689	
89000	-90236.614	15.857	0.207955	0.249666	0.235690	0.306689	
90000	-89461.553	16.123	0.209420	0.252933	0.221608	0.316039	
91000	-88915.491	16.048	0.211556	0.248506	0.225007	0.314931	
92000	-88648.664	15.970	0.214993	0.244462	0.233299	0.307245	
93000	-88347.638	15.929	0.214993	0.244462	0.233299	0.307245	
94000	-87991.657	15.745	0.205104	0.244617	0.238771	0.311508	
95000	-87663.018	15.665	0.205104	0.244617	0.238771	0.311508	
96000	-87194.479	15.345	0.208125	0.251884	0.231358	0.308633	
97000	-86783.461	15.293	0.208125	0.251884	0.231358	0.308633	
98000	-86537.169	15.171	0.204336	0.248110	0.231881	0.315673	
99000	-86279.200	15.052	0.204336	0.248110	0.231881	0.315673	
100000	-85931.730	14.887	0.209406	0.244555	0.239682	0.306356	
101000	-85517.933	14.875	0.209406	0.244555	0.239682	0.306356	
102000	-85363.601	14.864	0.209406	0.244555	0.239682	0.306356	
103000	-85265.708	14.776	0.209406	0.244555	0.239682	0.306356	
104000	-85175.400	14.662	0.209406	0.244555	0.239682	0.306356	
105000	-85014.631	14.740	0.209406	0.244555	0.239682	0.306356	
106000	-84920.513	14.715	0.209406	0.244555	0.239682	0.306356	
107000	-84649.943	14.661	0.209406	0.244555	0.239682	0.306356	
108000	-84609.320	14.563	0.209406	0.244555	0.239682	0.306356	
109000	-84383.849	14.618	0.209406	0.244555	0.239682	0.306356	
110000	-84314.741	14.517	0.214025	0.251907	0.234263	0.299805	
111000	-83732.137	14.503	0.214025	0.251907	0.234263	0.299805	
112000	-83441.080	14.366	0.214025	0.251907	0.234263	0.299805	
113000	-82855.995	14.196	0.214025	0.251907	0.234263	0.299805	
114000	-82509.113	14.113	0.214025	0.251907	0.234263	0.299805	
115000	-82100.167	14.067	0.214025	0.251907	0.234263	0.299805	
116000	-81825.540	13.978	0.214025	0.251907	0.234263	0.299805	
117000	-81312.461	13.791	0.214025	0.251907	0.234263	0.299805	
118000	-80915.700	13.790	0.214181	0.248199	0.234322	0.303297	
119000	-80524.510	13.866	0.214181	0.248199	0.234322	0.303297	
120000	-80387.167	13.898	0.214181	0.248199	0.234322	0.303297	
121000	-80210.006	13.834	0.214181	0.248199	0.234322	0.303297	
122000	-79962.770	13.757	0.214181	0.248199	0.234322	0.303297	
123000	-79036.797	13.655	0.209386	0.245998	0.234586	0.310030	
124000	-78179.635	13.580	0.209386	0.245998	0.234586	0.310030	
125000	-77547.666	13.416	0.209386	0.245998	0.234586	0.310030	
126000	-77205.793	13.453	0.209386	0.245998	0.234586	0.310030	
127000	-76892.564	13.203	0.209386	0.245998	0.234586	0.310030	
128000	-76622.078	12.955	0.209386	0.245998	0.234586	0.310030	
129000	-76187.671	12.874	0.209386	0.245998	0.234586	0.310030	
130000	-75846.622	12.791	0.209113	0.252555	0.234809	0.303523	
131000	-75758.135	12.718	0.219736	0.246733	0.224937	0.308594	
132000	-75573.640	12.619	0.215124	0.256349	0.228969	0.299558	
133000	-75413.787	12.562	0.215124	0.256349	0.228969	0.299558	
134000	-75303.540	12.599	0.200380	0.253645	0.240324	0.305652	
135000	-75243.352	12.538	0.203746	0.250847	0.241262	0.304146	
136000	-75185.086	12.390	0.210969	0.250872	0.226172	0.311987	
137000	-75057.732	12.220	0.214536	0.253825	0.227698	0.303941	
138000	-74908.620	12.235	0.209403	0.251184	0.231360	0.308053	
139000	-74847.823	12.224	0.209403	0.251184	0.231360	0.308053	
140000	-74797.811	12.112	0.209403	0.251184	0.231360	0.308053	
141000	-74753.156	12.145	0.209403	0.251184	0.231360	0.308053	
142000	-74682.506	12.122	0.210054	0.255755	0.232897	0.301295	
143000	-74633.294	12.098	0.210054	0.255755	0.232897	0.301295	
144000	-74606.750	12.130	0.210054	0.255755	0.232897	0.301295	
145000	-74517.672	12.121	0.210054	0.255755	0.232897	0.301295	
146000	-74469.355	12.075	0.210054	0.255755	0.232897	0.301295	
147000	-74446.949	12.142	0.215466	0.249821	0.237818	0.296895	
148000	-74404.496	12.083	0.215466	0.249821	0.237818	0.296895	
149000	-74392.409	12.181	0.205580	0.255845	0.236154	0.302421	
150000	-74372.292	12.147	0.205580	0.255845	0.236154	0.302421	
151000	-74323.244	12.144	0.205580	0.255845	0.236154	0.302421	
152000	-74280.893	12.135	0.205580	0.255845	0.236154	0.302421	
153000	-74249.430	12.010	0.205580	0.255845	0.236154	0.302421	
154000	-74219.592	11.975	0.205580	0.255845	0.236154	0.302421	
155000	-74196.492	11.954	0.205580	0.255845	0.236154	0.302421	
156000	-74160.656	11.928	0.205580	0.255845	0.236154	0.302421	
157000	-74125.795	11.942	0.210051	0.255892	0.237505	0.296552	
158000	-74102.983	11.832	0.210051	0.255892	0.237505	0.296552	
159000	-74073.159	11.822	0.209494	0.251149	0.233097	0.306260	
160000	-74039.509	11.837	0.195566	0.256444	0.246047	0.301943	
161000	-73998.140	11.830	0.211118	0.255296	0.240448	0.293138	
162000	-73979.159	11.839	0.211118	0.255296	0.240448	0.293138	
163000	-73959.283	11.879	0.205142	0.259116	0.242144	0.293598	
164000	-73978.929	11.878	0.205142	0.259116	0.242144	0.293598	
165000	-73876.300	11.862	0.205142	0.259116	0.242144	0.293598	
166000	-73813.675	11.886	0.205142	0.259116	0.242144	0.293598	
167000	-73711.501	11.928	0.212926	0.255278	0.238387	0.293409	
168000	-73691.273	11.905	0.212926	0.255278	0.238387	0.293409	
169000	-73638.744	11.909	0.212926	0.255278	0.238387	0.293409	
170000	-73600.307	11.926	0.212926	0.255278	0.238387	0.293409	
171000	-73575.988	11.863	0.212926	0.255278	0.238387	0.293409	
172000	-73552.106	11.861	0.214555	0.248624	0.234972	0.301849	
173000	-73539.240	11.842	0.215776	0.249477	0.240843	0.293904	
174000	-73511.985	11.786	0.208594	0.250526	0.237703	0.303176	
175000	-73494.423	11.806	0.208594	0.250526	0.237703	0.303176	
176000	-73412.636	11.794	0.206340	0.255667	0.243969	0.294024	
177000	-73356.422	11.743	0.206340	0.255667	0.243969	0.294024	
178000	-73277.446	12.954	0.218217	0.231823	0.233613	0.316348	
179000	-73069.840	12.963	0.218217	0.231823	0.233613	0.316348	
180000	-72567.214	12.919	0.218217	0.231823	0.233613	0.316348	
181000	-72340.413	13.035	0.218217	0.231823	0.233613	0.316348	
182000	-72177.261	13.004	0.216161	0.228930	0.236852	0.318058	
183000	-71924.467	12.977	0.220630	0.226121	0.231518	0.321732	
184000	-71664.619	12.784	0.214089	0.242201	0.227461	0.316249	
185000	-71394.108	12.640	0.207661	0.238962	0.236204	0.317172	
186000	-70944.933	12.762	0.223036	0.237114	0.224560	0.315290	
187000	-70580.772	12.872	0.216371	0.236686	0.238261	0.308682	
188000	-70208.330	12.613	0.223916	0.229777	0.224658	0.321649	
189000	-69903.232	12.395	0.220190	0.236792	0.233862	0.309156	
190000	-69566.573	12.360	0.220190	0.236792	0.233862	0.309156	
191000	-69312.191	12.301	0.220190	0.236792	0.233862	0.309156	
192000	-68937.619	12.269	0.220190	0.236792	0.233862	0.309156	
193000	-68593.039	12.147	0.204956	0.241814	0.234568	0.318661	
194000	-68083.960	11.941	0.212779	0.229740	0.230920	0.326561	
195000	-67860.296	11.852	0.212779	0.229740	0.230920	0.326561	
196000	-67692.589	11.867	0.212779	0.229740	0.230920	0.326561	
197000	-67522.671	11.813	0.216311	0.238823	0.233359	0.311507	
198000	-67353.144	11.683	0.203373	0.231760	0.239327	0.325540	
199000	-67122.044	11.602	0.203373	0.231760	0.239327	0.325540	
200000	-67019.022	11.559	0.209376	0.230556	0.240994	0.319074	
201000	-66885.215	11.461	0.209357	0.244078	0.235603	0.310961	
202000	-66779.063	11.443	0.206155	0.237496	0.245672	0.310676	
203000	-66740.193	11.336	0.213078	0.231853	0.231793	0.323276	
204000	-66716.920	11.258	0.213078	0.231853	0.231793	0.323276	
205000	-66629.492	11.245	0.213688	0.236450	0.239766	0.310096	
206000	-66535.604	11.380	0.213688	0.236450	0.239766	0.310096	
207000	-66469.753	11.388	0.210498	0.232331	0.240666	0.316505	
208000	-66396.596	11.383	0.210498	0.232331	0.240666	0.316505	
209000	-66247.729	11.270	0.210498	0.232331	0.240666	0.316505	
210000	-66165.023	11.372	0.210498	0.232331	0.240666	0.316505	
211000	-66161.541	11.401	0.216788	0.233639	0.237776	0.311797	
212000	-66044.555	11.364	0.211354	0.234239	0.238990	0.315417	
213000	-65955.000	11.211	0.211354	0.234239	0.238990	0.315417	
214000	-65858.473	11.160	0.211354	0.234239	0.238990	0.315417	
215000	-65787.646	11.094	0.211354	0.234239	0.238990	0.315417	
216000	-65678.548	10.917	0.211354	0.234239	0.238990	0.315417	
217000	-65638.905	10.833	0.206991	0.239793	0.242532	0.310684	
218000	-65541.757	10.894	0.206991	0.239793	0.242532	0.310684	
219000	-65473.031	10.830	0.206991	0.239793	0.242532	0.310684	
220000	-65448.508	10.784	0.206370	0.238457	0.240051	0.315122	
221000	-65391.934	10.821	0.206370	0.238457	0.240051	0.315122	
222000	-65358.388	10.861	0.207074	0.235754	0.241828	0.315345	
223000	-65239.351	10.824	0.207074	0.235754	0.241828	0.315345	
224000	-65160.809	10.785	0.212422	0.236668	0.237644	0.313266	
225000	-65157.387	10.765	0.212182	0.236977	0.244496	0.306345	
226000	-65147.019	10.770	0.215739	0.238459	0.242799	0.303003	
227000	-65153.957	10.770	0.215739	0.238459	0.242799	0.303003	
228000	-65161.308	10.760	0.215739	0.238459	0.242799	0.303003	
229000	-65149.939	10.793	0.215739	0.238459	0.242799	0.303003	
230000	-64617.895	10.794	0.216918	0.242145	0.235811	0.305125	
231000	-64372.394	10.754	0.217482	0.235323	0.238961	0.308234	
232000	-64375.183	10.746	0.214704	0.236894	0.235678	0.312724	
233000	-64220.949	10.738	0.214704	0.236894	0.235678	0.312724	
234000	-64139.570	10.764	0.211617	0.242829	0.240200	0.305353	
235000	-63933.224	10.640	0.211617	0.242829	0.240200	0.305353	
236000	-63847.562	10.666	0.211617	0.242829	0.240200	0.305353	
237000	-63801.598	10.550	0.211617	0.242829	0.240200	0.305353	
238000	-63759.673	10.553	0.211983	0.238949	0.238640	0.310428	
239000	-63746.108	10.528	0.211983	0.238949	0.238640	0.310428	
240000	-63714.993	10.465	0.211983	0.238949	0.238640	0.310428	
241000	-63633.696	10.484	0.211983	0.238949	0.238640	0.310428	
242000	-63506.949	10.532	0.224655	0.242496	0.242694	0.290155	
243000	-63262.001	10.479	0.215993	0.242632	0.247490	0.293885	
244000	-62487.036	10.440	0.224805	0.231508	0.243754	0.299933	
245000	-62338.940	10.473	0.224805	0.231508	0.243754	0.299933	
246000	-62303.805	10.426	0.221931	0.250525	0.235266	0.292277	
247000	-62266.945	10.400	0.221931	0.250525	0.235266	0.292277	
248000	-62186.450	10.342	0.221931	0.250525	0.235266	0.292277	
249000	-62165.907	10.302	0.221931	0.250525	0.235266	0.292277	
250000	-62061.876	10.333	0.228968	0.244861	0.231944	0.294228	
251000	-61987.945	10.242	0.231369	0.238241	0.234554	0.295836	
252000	-61906.347	10.206	0.231369	0.238241	0.234554	0.295836	
253000	-61878.399	10.151	0.214144	0.240741	0.245518	0.299597	
254000	-61834.154	10.079	0.219475	0.248578	0.239574	0.292374	
255000	-61816.368	10.067	0.219475	0.248578	0.239574	0.292374	
256000	-61728.700	9.978	0.219475	0.248578	0.239574	0.292374	
257000	-61713.744	9.955	0.219475	0.248578	0.239574	0.292374	
258000	-61662.854	9.883	0.219475	0.248578	0.239574	0.292374	
259000	-61604.617	9.917	0.219475	0.248578	0.239574	0.292374	
260000	-61596.460	9.993	0.219475	0.248578	0.239574	0.292374	
261000	-61607.442	9.953	0.206449	0.250017	0.246074	0.297460	
262000	-61595.200	9.905	0.217405	0.235704	0.239680	0.307210	
263000	-61577.838	9.858	0.217030	0.240808	0.235182	0.306980	
264000	-61579.586	9.881	0.218275	0.236733	0.252286	0.292707	
265000	-61539.134	9.906	0.226903	0.238983	0.237766	0.296349	
266000	-61515.134	9.870	0.227150	0.247836	0.238452	0.286563	
267000	-61460.614	9.882	0.220390	0.247136	0.239957	0.292517	
268000	-61453.267	9.805	0.220322	0.245529	0.243802	0.290347	
269000	-61412.368	9.749	0.220322	0.245529	0.243802	0.290347	
270000	-61399.947	9.728	0.220322	0.245529	0.243802	0.290347	
271000	-61405.843	9.775	0.220322	0.245529	0.243802	0.290347	
272000	-61393.594	9.723	0.220322	0.245529	0.243802	0.290347	
273000	-61403.556	9.725	0.220322	0.245529	0.243802	0.290347	
274000	-61384.427	9.748	0.221482	0.240102	0.249146	0.289270	
275000	-61388.109	9.724	0.220910	0.246073	0.242487	0.290530	
276000	-61367.778	9.730	0.220910	0.246073	0.242487	0.290530	
277000	-61377.290	9.732	0.220910	0.246073	0.242487	0.290530	
278000	-61388.027	9.803	0.220910	0.246073	0.242487	0.290530	
279000	-61374.325	9.739	0.220910	0.246073	0.242487	0.290530	
280000	-61377.963	9.767	0.220910	0.246073	0.242487	0.290530	
281000	-61368.796	9.809	0.221620	0.242756	0.241802	0.293822	
282000	-61373.937	9.756	0.221620	0.242756	0.241802	0.293822	
283000	-61374.339	9.755	0.221620	0.242756	0.241802	0.293822	
284000	-61357.271	9.739	0.218584	0.242378	0.248417	0.290621	
285000	-61361.481	9.737	0.218584	0.242378	0.248417	0.290621	
286000	-61347.530	9.754	0.218584	0.242378	0.248417	0.290621	
287000	-61314.359	9.785	0.218584	0.242378	0.248417	0.290621	
288000	-61318.914	9.777	0.218584	0.242378	0.248417	0.290621	
289000	-61327.786	9.822	0.218584	0.242378	0.248417	0.290621	
290000	-61320.615	9.816	0.221944	0.243942	0.237368	0.296746	
291000	-61329.369	9.855	0.221944	0.243942	0.237368	0.296746	
292000	-61321.999	9.821	0.221971	0.245601	0.239317	0.293111	
293000	-61316.787	9.874	0.221971	0.245601	0.239317	0.293111	
294000	-61304.617	9.865	0.214209	0.253441	0.241530	0.290821	
295000	-61307.981	9.868	0.216662	0.239786	0.239825	0.303727	
296000	-61340.182	9.896	0.216662	0.239786	0.239825	0.303727	
297000	-61343.022	9.898	0.216662	0.239786	0.239825	0.303727	
298000	-61314.960	9.891	0.219999	0.243494	0.247526	0.288981	
299000	-61329.045	9.980	0.219999	0.243494	0.247526	0.288981	
300000	-61287.832	9.917	0.218875	0.243088	0.245250	0.292787	
301000	-61298.127	9.966	0.218875	0.243088	0.245250	0.292787	
302000	-61311.019	9.953	0.218875	0.243088	0.245250	0.292787	
303000	-61302.781	9.910	0.218875	0.243088	0.245250	0.292787	
304000	-61290.626	9.894	0.218875	0.243088	0.245250	0.292787	
305000	-61272.178	9.889	0.218875	0.243088	0.245250	0.292787	
306000	-61255.177	9.873	0.218875	0.243088	0.245250	0.292787	
307000	-61256.908	9.845	0.218875	0.243088	0.245250	0.292787	
308000	-61243.792	9.848	0.218875	0.243088	0.245250	0.292787	
309000	-61252.353	9.911	0.214029	0.251671	0.243754	0.290546	
310000	-61250.148	9.903	0.217889	0.237178	0.244168	0.300765	
311000	-61293.376	9.931	0.217889	0.237178	0.244168	0.300765	
312000	-61171.778	9.962	0.215271	0.239967	0.241428	0.303335	
313000	-60933.448	10.010	0.213014	0.247320	0.246384	0.293282	
314000	-60870.782	9.955	0.227040	0.233623	0.244351	0.294985	
315000	-60712.238	9.860	0.220150	0.240697	0.243506	0.295646	
316000	-60675.502	9.812	0.222583	0.243037	0.245528	0.288852	
317000	-60618.899	9.850	0.227768	0.246770	0.239461	0.286001	
318000	-60630.994	9.906	0.227768	0.246770	0.239461	0.286001	
319000	-60601.362	9.886	0.223589	0.249749	0.245942	0.280720	
320000	-60580.158	9.818	0.220469	0.245700	0.244319	0.289512	
321000	-60584.090	9.742	0.220469	0.245700	0.244319	0.289512	
322000	-60576.417	9.754	0.220469	0.245700	0.244319	0.289512	
323000	-60553.690	9.670	0.221412	0.244258	0.244199	0.290131	
324000	-60571.233	9.727	0.218140	0.246076	0.237632	0.298152	
325000	-60557.950	9.725	0.223298	0.244823	0.238648	0.293232	
326000	-60553.752	9.687	0.223298	0.244823	0.238648	0.293232	
327000	-60518.258	9.713	0.223298	0.244823	0.238648	0.293232	
328000	-60521.467	9.748	0.223298	0.244823	0.238648	0.293232	
329000	-60518.943	9.768	0.212530	0.244119	0.246448	0.296903	
330000	-60495.798	9.710	0.212530	0.244119	0.246448	0.296903	
331000	-60484.316	9.683	0.212530	0.244119	0.246448	0.296903	
332000	-60485.987	9.671	0.212530	0.244119	0.246448	0.296903	
333000	-60494.400	9.709	0.212530	0.244119	0.246448	0.296903	
334000	-60399.972	10.568	0.219933	0.230073	0.228750	0.321244	
335000	-60280.865	10.499	0.219933	0.230073	0.228750	0.321244	
336000	-60166.466	10.445	0.219933	0.230073	0.228750	0.321244	
337000	-59996.761	10.441	0.214510	0.235304	0.233101	0.317085	
338000	-59850.019	10.307	0.214510	0.235304	0.233101	0.317085	
339000	-59775.176	10.243	0.214510	0.235304	0.233101	0.317085	
340000	-59721.982	10.229	0.214510	0.235304	0.233101	0.317085	
341000	-59681.108	10.203	0.214510	0.235304	0.233101	0.317085	
342000	-59630.962	10.123	0.214510	0.235304	0.233101	0.317085	
343000	-59556.788	10.118	0.214510	0.235304	0.233101	0.317085	
344000	-59359.850	10.085	0.214510	0.235304	0.233101	0.317085	
345000	-59319.960	9.991	0.214510	0.235304	0.233101	0.317085	
346000	-59249.864	9.921	0.218926	0.241679	0.231994	0.307402	
347000	-59208.725	9.973	0.218926	0.241679	0.231994	0.307402	
348000	-59161.605	9.822	0.214095	0.236564	0.237295	0.312045	
349000	-59110.892	9.689	0.214095	0.236564	0.237295	0.312045	
350000	-59104.900	9.625	0.214095	0.236564	0.237295	0.312045	
351000	-59076.947	9.695	0.217231	0.232809	0.233841	0.316119	
352000	-59055.242	9.694	0.217231	0.232809	0.233841	0.316119	
353000	-59020.773	9.639	0.211152	0.245544	0.233034	0.310270	
354000	-58985.381	9.607	0.223191	0.235706	0.234876	0.306228	
355000	-58980.871	9.559	0.211123	0.236068	0.239476	0.313333	
356000	-58967.138	9.540	0.211123	0.236068	0.239476	0.313333	
357000	-58967.244	9.489	0.211123	0.236068	0.239476	0.313333	
358000	-58954.956	9.514	0.211123	0.236068	0.239476	0.313333	
359000	-58943.169	9.531	0.211123	0.236068	0.239476	0.313333	
360000	-58915.941	9.479	0.211419	0.243136	0.235303	0.310142	
361000	-58891.947	9.525	0.211419	0.243136	0.235303	0.310142	
362000	-58877.225	9.510	0.211419	0.243136	0.235303	0.310142	
363000	-58872.569	9.460	0.211419	0.243136	0.235303	0.310142	
364000	-58874.143	9.465	0.211419	0.243136	0.235303	0.310142	
365000	-58847.972	9.445	0.213690	0.243956	0.242682	0.299673	
366000	-58844.492	9.456	0.213690	0.243956	0.242682	0.299673	
367000	-58837.420	9.511	0.219395	0.236090	0.241733	0.302783	
368000	-58743.824	9.452	0.214383	0.239431	0.236722	0.309464	
369000	-58730.318	9.527	0.214383	0.239431	0.236722	0.309464	
370000	-58681.386	9.516	0.218344	0.239100	0.237113	0.305442	
371000	-58472.870	9.514	0.218344	0.239100	0.237113	0.305442	
372000	-58358.799	9.536	0.218344	0.239100	0.237113	0.305442	
373000	-58137.908	9.503	0.218344	0.239100	0.237113	0.305442	
374000	-58083.504	9.473	0.218344	0.239100	0.237113	0.305442	
375000	-58003.448	9.524	0.218344	0.239100	0.237113	0.305442	
376000	-57831.543	9.479	0.218344	0.239100	0.237113	0.305442	
377000	-57633.819	9.610	0.218344	0.239100	0.237113	0.305442	
378000	-57458.435	9.601	0.218344	0.239100	0.237113	0.305442	
379000	-57293.868	9.541	0.218344	0.239100	0.237113	0.305442	
380000	-57276.908	9.428	0.218344	0.239100	0.237113	0.305442	
381000	-57222.269	9.376	0.218344	0.239100	0.237113	0.305442	
382000	-57148.518	9.379	0.218344	0.239100	0.237113	0.305442	
383000	-57115.368	9.391	0.218344	0.239100	0.237113	0.305442	
384000	-56943.285	9.353	0.218344	0.239100	0.237113	0.305442	
385000	-56796.850	9.316	0.218344	0.239100	0.237113	0.305442	
386000	-56720.103	9.290	0.222980	0.238632	0.235014	0.303374	
387000	-56717.812	9.289	0.222980	0.238632	0.235014	0.303374	
388000	-56691.078	9.289	0.221803	0.239741	0.231237	0.307218	
389000	-56636.396	9.322	0.221803	0.239741	0.231237	0.307218	
390000	-56605.610	9.378	0.216578	0.236732	0.234462	0.312229	
391000	-56064.324	9.252	0.217284	0.234425	0.233176	0.315115	
392000	-55907.341	9.251	0.217284	0.234425	0.233176	0.315115	
393000	-55418.399	9.238	0.222048	0.232783	0.235314	0.309855	
394000	-55319.934	9.218	0.213646	0.222895	0.232673	0.330786	
395000	-55124.060	9.140	0.219883	0.222911	0.231487	0.325719	
396000	-54884.274	9.100	0.219883	0.222911	0.231487	0.325719	
397000	-54711.769	9.121	0.222081	0.222737	0.233338	0.321845	
398000	-54577.128	9.035	0.222081	0.222737	0.233338	0.321845	
399000	-54331.888	9.022	0.217178	0.220510	0.224179	0.338134	
400000	-54260.148	8.920	0.216741	0.223566	0.233728	0.325966	
401000	-54088.982	8.950	0.216741	0.223566	0.233728	0.325966	
402000	-53862.681	8.916	0.216741	0.223566	0.233728	0.325966	
403000	-53280.177	8.844	0.226158	0.224118	0.228249	0.321475	
404000	-53004.570	8.829	0.226158	0.224118	0.228249	0.321475	
405000	-52795.617	8.798	0.226158	0.224118	0.228249	0.321475	
406000	-52664.962	8.863	0.227965	0.224495	0.227038	0.320502	
407000	-52432.599	8.750	0.217089	0.233062	0.235226	0.314622	
408000	-52332.929	8.759	0.217952	0.233793	0.232228	0.316028	
409000	-52164.583	8.705	0.217952	0.233793	0.232228	0.316028	
410000	-52032.745	8.698	0.215801	0.232013	0.232836	0.319351	
411000	-51791.010	8.667	0.215801	0.232013	0.232836	0.319351	
412000	-51721.286	8.645	0.224464	0.235629	0.231908	0.307999	
413000	-51681.670	8.608	0.215120	0.230104	0.232506	0.322270	
414000	-51641.180	8.585	0.215120	0.230104	0.232506	0.322270	
415000	-51613.253	8.542	0.215120	0.230104	0.232506	0.322270	
416000	-51599.236	8.533	0.220190	0.227605	0.230298	0.321906	
417000	-51598.470	8.537	0.220190	0.227605	0.230298	0.321906	
418000	-51476.131	8.439	0.218482	0.234548	0.227760	0.319210	
419000	-51429.063	8.496	0.214107	0.233577	0.235589	0.316727	
420000	-51314.757	8.361	0.226046	0.228241	0.238125	0.307588	
421000	-51281.825	8.341	0.230800	0.232615	0.231252	0.305334	
422000	-51264.584	8.248	0.216147	0.231119	0.231937	0.320797	
423000	-51162.993	8.231	0.222169	0.230319	0.235715	0.311796	
424000	-50729.842	8.141	0.222169	0.230319	0.235715	0.311796	
425000	-50684.794	8.100	0.222169	0.230319	0.235715	0.311796	
426000	-50655.297	8.168	0.222169	0.230319	0.235715	0.311796	
427000	-50634.018	8.155	0.222169	0.230319	0.235715	0.311796	
428000	-50622.157	8.268	0.222169	0.230319	0.235715	0.311796	
429000	-50583.407	8.175	0.222169	0.230319	0.235715	0.311796	
430000	-50522.044	8.167	0.222169	0.230319	0.235715	0.311796	
431000	-50501.162	8.207	0.219523	0.225096	0.242573	0.312808	
432000	-50495.583	8.286	0.219523	0.225096	0.242573	0.312808	
433000	-50471.327	8.285	0.219523	0.225096	0.242573	0.312808	
434000	-50466.925	8.276	0.212816	0.231214	0.235321	0.320649	
435000	-50420.812	8.305	0.221443	0.229249	0.237865	0.311443	
436000	-50393.612	8.255	0.221443	0.229249	0.237865	0.311443	
437000	-50373.111	8.251	0.221443	0.229249	0.237865	0.311443	
438000	-50316.083	8.256	0.222720	0.229467	0.237430	0.310383	
439000	-50307.946	8.254	0.227990	0.224043	0.226798	0.321169	
440000	-50280.660	8.239	0.227865	0.228088	0.233816	0.310231	
441000	-50263.917	8.257	0.227865	0.228088	0.233816	0.310231	
442000	-50255.565	8.321	0.227865	0.228088	0.233816	0.310231	
443000	-50215.551	8.289	0.227865	0.228088	0.233816	0.310231	
444000	-50209.895	8.303	0.227865	0.228088	0.233816	0.310231	
445000	-50187.220	8.200	0.227865	0.228088	0.233816	0.310231	
446000	-50183.853	8.188	0.216786	0.228587	0.237768	0.316860	
447000	-50158.266	8.175	0.216786	0.228587	0.237768	0.316860	
448000	-50156.832	8.179	0.216786	0.228587	0.237768	0.316860	
449000	-50155.283	8.238	0.216786	0.228587	0.237768	0.316860	
450000	-50141.236	8.236	0.216786	0.228587	0.237768	0.316860	
451000	-50132.723	8.230	0.226015	0.226181	0.235920	0.311883	
452000	-50129.048	8.172	0.226015	0.226181	0.235920	0.311883	
453000	-50110.033	8.173	0.222293	0.236642	0.230981	0.310083	
454000	-50084.873	8.163	0.219161	0.235028	0.233075	0.312736	
455000	-50084.016	8.171	0.219161	0.235028	0.233075	0.312736	
456000	-50076.333	8.133	0.223731	0.226876	0.232370	0.317024	
457000	-50074.546	8.104	0.223731	0.226876	0.232370	0.317024	
458000	-50069.836	8.108	0.223731	0.226876	0.232370	0.317024	
459000	-50075.712	8.142	0.223731	0.226876	0.232370	0.317024	
460000	-50068.513	8.123	0.223952	0.231904	0.241749	0.302395	
461000	-50076.880	8.127	0.232250	0.223270	0.229074	0.315407	
462000	-50053.091	8.121	0.220745	0.233994	0.225819	0.319442	
463000	-50049.349	8.104	0.216885	0.232199	0.238735	0.312180	
464000	-50045.771	8.125	0.216885	0.232199	0.238735	0.312180	
465000	-50022.655	8.166	0.216885	0.232199	0.238735	0.312180	
466000	-50050.251	8.175	0.226759	0.226687	0.228550	0.318003	
467000	-50046.902	8.131	0.221691	0.232715	0.236425	0.309169	
468000	-50019.097	8.055	0.221691	0.232715	0.236425	0.309169	
469000	-50026.331	8.050	0.220803	0.228136	0.242458	0.308602	
470000	-50019.480	8.004	0.229669	0.226357	0.238282	0.305692	
471000	-50017.380	7.965	0.218274	0.236063	0.231227	0.314436	
472000	-50012.531	7.979	0.218274	0.236063	0.231227	0.314436	
473000	-49981.290	8.047	0.218274	0.236063	0.231227	0.314436	
474000	-49969.272	8.053	0.218274	0.236063	0.231227	0.314436	
475000	-49971.540	8.041	0.219468	0.235491	0.232677	0.312364	
476000	-49975.232	7.981	0.216628	0.233327	0.234651	0.315394	
477000	-49979.867	7.989	0.216628	0.233327	0.234651	0.315394	
478000	-49961.889	7.989	0.216628	0.233327	0.234651	0.315394	
479000	-49958.908	7.997	0.226264	0.226067	0.238819	0.308851	
480000	-49980.447	8.022	0.226864	0.239288	0.226459	0.307388	
481000	-49976.373	8.025	0.226864	0.239288	0.226459	0.307388	
482000	-49978.592	8.013	0.222492	0.231527	0.240097	0.305884	
483000	-49996.219	8.033	0.222492	0.231527	0.240097	0.305884	
484000	-49993.064	8.049	0.222492	0.231527	0.240097	0.305884	
485000	-49977.383	8.063	0.222492	0.231527	0.240097	0.305884	
486000	-49978.940	8.065	0.222492	0.231527	0.240097	0.305884	
487000	-49970.197	8.045	0.218937	0.228067	0.239083	0.313913	
488000	-49979.375	8.088	0.229122	0.233903	0.227905	0.309070	
489000	-49971.258	8.049	0.230650	0.236023	0.226515	0.306812	
490000	-49966.492	8.063	0.227836	0.228404	0.227866	0.315893	
491000	-49959.629	8.089	0.224107	0.224984	0.239847	0.311062	
492000	-49971.186	8.101	0.225441	0.226315	0.232379	0.315865	
493000	-49978.855	8.099	0.225441	0.226315	0.232379	0.315865	
494000	-49971.187	8.036	0.225971	0.227151	0.237593	0.309285	
495000	-49969.216	8.091	0.225654	0.229063	0.235805	0.309478	
496000	-49971.727	8.060	0.227891	0.234656	0.228110	0.309343	
497000	-49966.615	8.018	0.227841	0.230345	0.233379	0.308435	
498000	-49959.503	8.078	0.223276	0.229191	0.230229	0.317304	
499000	-49953.897	8.084	0.223276	0.229191	0.230229	0.317304	
500000	-49948.934	8.101	0.223276	0.229191	0.230229	0.317304	
501000	-49961.169	8.097	0.223276	0.229191	0.230229	0.317304	
502000	-49964.079	8.141	0.223276	0.229191	0.230229	0.317304	
503000	-49961.269	8.167	0.223276	0.229191	0.230229	0.317304	
504000	-49943.376	8.224	0.223276	0.229191	0.230229	0.317304	
505000	-49790.761	8.243	0.223733	0.230130	0.228643	0.317493	
506000	-49787.871	8.220	0.218109	0.230481	0.233075	0.318336	
507000	-49733.088	8.180	0.218109	0.230481	0.233075	0.318336	
508000	-49733.569	8.153	0.218109	0.230481	0.233075	0.318336	
509000	-49704.950	8.098	0.218109	0.230481	0.233075	0.318336	
510000	-49677.440	8.109	0.220570	0.226002	0.235007	0.318420	
511000	-49631.553	8.159	0.220570	0.226002	0.235007	0.318420	
512000	-49600.465	8.161	0.220570	0.226002	0.235007	0.318420	
513000	-49589.021	8.137	0.220570	0.226002	0.235007	0.318420	
514000	-49580.849	8.145	0.220570	0.226002	0.235007	0.318420	
515000	-49584.871	8.101	0.220570	0.226002	0.235007	0.318420	
516000	-49559.741	8.124	0.223205	0.221591	0.238930	0.316274	
517000	-49554.073	8.086	0.215972	0.231934	0.236064	0.316030	
518000	-49566.952	8.096	0.226618	0.231111	0.223637	0.318634	
519000	-49559.868	8.145	0.226618	0.231111	0.223637	0.318634	
520000	-49577.016	8.152	0.222520	0.234923	0.232333	0.310224	
521000	-49573.212	8.163	0.234234	0.225423	0.233387	0.306956	
522000	-49581.226	8.243	0.228649	0.223079	0.231696	0.316576	
523000	-49576.739	8.207	0.228649	0.223079	0.231696	0.316576	
524000	-49571.260	8.171	0.228649	0.223079	0.231696	0.316576	
525000	-49596.832	8.175	0.219111	0.227448	0.234372	0.319068	
526000	-49597.971	8.172	0.225212	0.223139	0.233317	0.318332	
527000	-49615.220	8.210	0.225212	0.223139	0.233317	0.318332	
528000	-49583.199	8.173	0.220531	0.236288	0.224949	0.318232	
529000	-49580.046	8.161	0.223290	0.225395	0.230734	0.320581	
530000	-49587.211	8.137	0.223803	0.225485	0.231841	0.318871	
531000	-49572.069	8.106	0.223803	0.225485	0.231841	0.318871	
532000	-49567.503	8.160	0.218770	0.230971	0.232711	0.317549	
533000	-49570.676	8.147	0.227775	0.222509	0.237820	0.311896	
534000	-49591.710	8.125	0.228357	0.228873	0.225054	0.317717	
535000	-49599.780	8.145	0.226949	0.219164	0.233071	0.320816	
536000	-49575.118	8.106	0.223530	0.232600	0.229127	0.314743	
537000	-49570.779	8.077	0.225038	0.229380	0.230678	0.314904	
538000	-49561.626	8.098	0.225038	0.229380	0.230678	0.314904	
539000	-49560.785	8.075	0.220514	0.226298	0.241390	0.311799	
540000	-49561.898	8.125	0.217562	0.229578	0.241713	0.311147	
541000	-49554.636	8.119	0.230095	0.227282	0.225293	0.317330	
542000	-49553.517	8.063	0.217747	0.228801	0.230231	0.323221	
543000	-49568.496	8.011	0.220963	0.236752	0.233249	0.309036	
544000	-49564.879	8.021	0.221533	0.236312	0.229081	0.313074	
545000	-49570.326	8.017	0.221533	0.236312	0.229081	0.313074	
546000	-49570.323	8.050	0.225598	0.233376	0.227518	0.313508	
547000	-49564.127	8.011	0.224817	0.224429	0.234803	0.315951	
548000	-49553.531	7.992	0.224817	0.224429	0.234803	0.315951	
549000	-49546.376	8.027	0.220317	0.229704	0.231616	0.318364	
550000	-49541.723	7.971	0.220317	0.229704	0.231616	0.318364	
551000	-49528.948	7.936	0.220317	0.229704	0.231616	0.318364	
552000	-49526.530	7.898	0.221689	0.232889	0.231048	0.314374	
553000	-49542.135	7.928	0.221689	0.232889	0.231048	0.314374	
554000	-49538.432	7.902	0.230319	0.233119	0.230452	0.306110	
555000	-49534.106	7.901	0.230319	0.233119	0.230452	0.306110	
556000	-49551.644	7.890	0.219145	0.234105	0.239917	0.306832	
557000	-49573.642	7.939	0.223393	0.226445	0.234071	0.316092	
558000	-49584.111	8.181	0.225207	0.245631	0.235406	0.293755	
559000	-49546.609	8.111	0.220459	0.241544	0.227637	0.310360	
560000	-49516.264	8.143	0.226059	0.238562	0.238415	0.296965	
561000	-49418.904	8.136	0.224607	0.239623	0.230987	0.304784	
562000	-49368.929	8.051	0.227050	0.241859	0.230990	0.300101	
563000	-49333.755	8.003	0.227050	0.241859	0.230990	0.300101	
564000	-49310.437	8.035	0.227050	0.241859	0.230990	0.300101	
565000	-49292.953	7.999	0.227050	0.241859	0.230990	0.300101	
566000	-49312.438	7.975	0.227050	0.241859	0.230990	0.300101	
567000	-49276.127	7.896	0.227050	0.241859	0.230990	0.300101	
568000	-49267.527	7.862	0.231428	0.242920	0.226896	0.298756	
569000	-49263.347	7.831	0.231428	0.242920	0.226896	0.298756	
570000	-49263.958	7.842	0.231428	0.242920	0.226896	0.298756	
571000	-49255.374	7.780	0.225445	0.247724	0.232717	0.294114	
572000	-49246.249	7.805	0.225445	0.247724	0.232717	0.294114	
573000	-49209.938	7.811	0.230318	0.238221	0.237375	0.294086	
574000	-49197.821	7.797	0.227527	0.240442	0.231217	0.300814	
575000	-49203.760	7.794	0.227527	0.240442	0.231217	0.300814	
576000	-49183.516	7.767	0.227527	0.240442	0.231217	0.300814	
577000	-49178.430	7.750	0.227527	0.240442	0.231217	0.300814	
578000	-49159.011	7.715	0.227527	0.240442	0.231217	0.300814	
579000	-49152.399	7.747	0.227527	0.240442	0.231217	0.300814	
580000	-49132.311	7.749	0.227527	0.240442	0.231217	0.300814	
581000	-48974.185	7.710	0.233093	0.239790	0.227855	0.299261	
582000	-48965.525	7.778	0.218882	0.248819	0.233661	0.298638	
583000	-48957.209	7.738	0.223645	0.249863	0.229320	0.297172	
584000	-48928.669	7.767	0.223645	0.249863	0.229320	0.297172	
585000	-48886.813	7.814	0.223243	0.245833	0.226038	0.304886	
586000	-48861.644	7.761	0.224226	0.236128	0.239451	0.300195	
587000	-48844.411	7.742	0.224226	0.236128	0.239451	0.300195	
588000	-48840.797	7.742	0.224226	0.236128	0.239451	0.300195	
589000	-48861.735	7.794	0.224226	0.236128	0.239451	0.300195	
590000	-48851.782	7.775	0.224226	0.236128	0.239451	0.300195	
591000	-48843.279	7.788	0.224226	0.236128	0.239451	0.300195	
592000	-48836.932	7.772	0.224226	0.236128	0.239451	0.300195	
593000	-48824.524	7.739	0.217398	0.238892	0.237904	0.305807	
594000	-48811.486	7.669	0.219272	0.242418	0.241090	0.297220	
595000	-48822.867	7.631	0.219272	0.242418	0.241090	0.297220	
596000	-48803.175	7.649	0.219272	0.242418	0.241090	0.297220	
597000	-48815.222	7.646	0.219272	0.242418	0.241090	0.297220	
598000	-48791.918	7.621	0.219272	0.242418	0.241090	0.297220	
599000	-48784.987	7.646	0.225652	0.239844	0.234536	0.299969	
600000	-48788.550	7.643	0.225652	0.239844	0.234536	0.299969	
601000	-48768.633	7.654	0.225283	0.241392	0.231055	0.302271	
602000	-48768.285	7.608	0.225283	0.241392	0.231055	0.302271	
603000	-48747.932	7.578	0.225283	0.241392	0.231055	0.302271	
604000	-48758.469	7.632	0.225283	0.241392	0.231055	0.302271	
605000	-48737.891	7.579	0.226475	0.244213	0.232140	0.297172	
606000	-48750.858	7.564	0.224227	0.246693	0.238457	0.290623	
607000	-48745.563	7.570	0.220232	0.244855	0.245641	0.289271	
608000	-48737.662	7.570	0.216633	0.245561	0.240075	0.297730	
609000	-48737.863	7.498	0.216633	0.245561	0.240075	0.297730	
610000	-48722.942	7.474	0.214501	0.243256	0.233291	0.308951	
611000	-48724.534	7.507	0.214501	0.243256	0.233291	0.308951	
612000	-48743.314	7.514	0.218854	0.241243	0.244128	0.295775	
613000	-48753.556	7.621	0.228729	0.246213	0.229973	0.295085	
614000	-48760.479	7.628	0.225878	0.241493	0.227681	0.304948	
615000	-48748.316	7.636	0.223139	0.237597	0.237180	0.302084	
616000	-48741.030	7.668	0.227948	0.233849	0.235110	0.303093	
617000	-48722.142	7.629	0.224452	0.244572	0.239824	0.291152	
618000	-48698.853	7.652	0.224452	0.244572	0.239824	0.291152	
619000	-48683.125	7.649	0.222683	0.238729	0.236167	0.302421	
620000	-48689.092	7.626	0.222683	0.238729	0.236167	0.302421	
621000	-48684.954	7.637	0.224033	0.242327	0.235818	0.297822	
622000	-48674.038	7.654	0.224033	0.242327	0.235818	0.297822	
623000	-48692.993	7.673	0.224033	0.242327	0.235818	0.297822	
624000	-48722.694	7.707	0.224033	0.242327	0.235818	0.297822	
625000	-48707.187	7.737	0.224033	0.242327	0.235818	0.297822	
626000	-48710.946	7.744	0.224033	0.242327	0.235818	0.297822	
627000	-48710.936	7.769	0.224033	0.242327	0.235818	0.297822	
628000	-48714.909	7.749	0.224033	0.242327	0.235818	0.297822	
629000	-48690.726	7.725	0.220241	0.246565	0.237193	0.296002	
630000	-48694.994	7.722	0.225358	0.242379	0.235271	0.296993	
631000	-48670.908	7.660	0.221308	0.247294	0.241148	0.290250	
632000	-48662.486	7.755	0.221308	0.247294	0.241148	0.290250	
633000	-48665.272	7.758	0.221308	0.247294	0.241148	0.290250	
634000	-48654.860	7.638	0.221308	0.247294	0.241148	0.290250	
635000	-48676.902	7.626	0.221723	0.239031	0.241364	0.297882	
636000	-48666.452	7.643	0.220032	0.244904	0.230858	0.304207	
637000	-48665.299	7.590	0.225172	0.236921	0.238802	0.299105	
638000	-48670.779	7.611	0.227693	0.237030	0.242619	0.292658	
639000	-48674.342	7.577	0.219376	0.249406	0.243285	0.287933	
640000	-48664.110	7.538	0.222264	0.237990	0.245717	0.294029	
641000	-48664.611	7.539	0.217765	0.237388	0.236022	0.308825	
642000	-48669.894	7.603	0.219549	0.249135	0.234577	0.296739	
643000	-48673.711	7.540	0.219549	0.249135	0.234577	0.296739	
644000	-48672.601	7.523	0.226283	0.244106	0.240304	0.289306	
645000	-48681.349	7.554	0.226283	0.244106	0.240304	0.289306	
646000	-48703.303	7.577	0.220156	0.241054	0.244028	0.294762	
647000	-48700.559	7.487	0.220156	0.241054	0.244028	0.294762	
648000	-48689.071	7.561	0.229082	0.244762	0.226457	0.299699	
649000	-48690.311	7.600	0.229082	0.244762	0.226457	0.299699	
650000	-48683.513	7.634	0.231201	0.248479	0.237810	0.282510	
651000	-48692.573	7.685	0.225443	0.240313	0.241493	0.292751	
652000	-48683.860	7.596	0.225443	0.240313	0.241493	0.292751	
653000	-48659.500	7.535	0.225443	0.240313	0.241493	0.292751	
654000	-48668.276	7.579	0.225443	0.240313	0.241493	0.292751	
655000	-48659.865	7.570	0.229399	0.240479	0.237067	0.293055	
656000	-48634.177	7.576	0.228171	0.240492	0.234958	0.296379	
657000	-48614.728	7.534	0.228171	0.240492	0.234958	0.296379	
658000	-48574.114	7.570	0.229856	0.234831	0.242425	0.292888	
659000	-48591.990	7.590	0.228177	0.239080	0.246032	0.286711	
660000	-48605.212	7.544	0.228177	0.239080	0.246032	0.286711	
661000	-48593.136	7.527	0.228152	0.251961	0.227590	0.292296	
662000	-48584.377	7.534	0.227095	0.249472	0.225537	0.297896	
663000	-48581.714	7.503	0.222058	0.242443	0.236084	0.299415	
664000	-48581.200	7.483	0.222058	0.242443	0.236084	0.299415	
665000	-48572.040	7.462	0.222058	0.242443	0.236084	0.299415	
666000	-48563.182	7.421	0.230123	0.241907	0.234617	0.293353	
667000	-48559.352	7.445	0.223447	0.244349	0.232342	0.299862	
668000	-48565.162	7.469	0.223447	0.244349	0.232342	0.299862	
669000	-48550.572	7.473	0.223447	0.244349	0.232342	0.299862	
670000	-48544.176	7.458	0.223447	0.244349	0.232342	0.299862	
671000	-48531.933	7.385	0.217449	0.239435	0.240555	0.302561	
672000	-48543.919	7.417	0.216948	0.248336	0.240443	0.294273	
673000	-48542.946	7.418	0.216948	0.248336	0.240443	0.294273	
674000	-48534.500	7.470	0.216948	0.248336	0.240443	0.294273	
675000	-48545.750	7.498	0.216948	0.248336	0.240443	0.294273	
676000	-48549.357	7.541	0.220014	0.240385	0.239203	0.300398	
677000	-48549.597	7.517	0.224790	0.244383	0.234238	0.296589	
678000	-48530.028	7.457	0.224790	0.244383	0.234238	0.296589	
679000	-48545.619	7.412	0.222210	0.248136	0.235018	0.294636	
680000	-48560.214	7.426	0.231946	0.240545	0.242469	0.285040	
681000	-48560.223	7.397	0.231946	0.240545	0.242469	0.285040	
682000	-48541.994	7.421	0.228221	0.240728	0.236600	0.294451	
683000	-48547.147	7.405	0.224729	0.245882	0.243396	0.285993	
684000	-48562.456	7.373	0.217757	0.246610	0.237690	0.297943	
685000	-48568.561	7.352	0.216076	0.238005	0.242150	0.303769	
686000	-48559.888	7.365	0.217987	0.242376	0.244964	0.294673	
687000	-48559.445	7.368	0.217987	0.242376	0.244964	0.294673	
688000	-48555.515	7.362	0.222735	0.247557	0.243001	0.286708	
689000	-48567.662	7.425	0.222735	0.247557	0.243001	0.286708	
690000	-48570.901	7.423	0.222735	0.247557	0.243001	0.286708	
691000	-48577.635	7.399	0.220017	0.247327	0.243194	0.289462	
692000	-48577.858	7.407	0.220017	0.247327	0.243194	0.289462	
693000	-48584.097	7.366	0.220017	0.247327	0.243194	0.289462	
694000	-48570.268	7.406	0.225997	0.240776	0.239617	0.293610	
695000	-48574.897	7.447	0.225997	0.240776	0.239617	0.293610	
696000	-48588.844	7.484	0.225997	0.240776	0.239617	0.293610	
697000	-48599.934	7.475	0.225997	0.240776	0.239617	0.293610	
698000	-48592.697	7.417	0.225997	0.240776	0.239617	0.293610	
699000	-48595.100	7.432	0.215466	0.245236	0.236455	0.302842	
700000	-48576.032	7.456	0.218683	0.240591	0.241386	0.299340	
701000	-48566.472	7.464	0.227224	0.238862	0.238850	0.295064	
702000	-48566.004	7.485	0.227224	0.238862	0.238850	0.295064	
703000	-48579.097	7.471	0.227224	0.238862	0.238850	0.295064	
704000	-48570.422	7.504	0.223429	0.247820	0.237122	0.291630	
705000	-48594.746	7.608	0.223429	0.247820	0.237122	0.291630	
706000	-48617.565	7.599	0.225153	0.246921	0.234074	0.293852	
707000	-48612.437	7.570	0.225153	0.246921	0.234074	0.293852	
708000	-48593.319	7.569	0.225153	0.246921	0.234074	0.293852	
709000	-48587.655	7.604	0.222616	0.241621	0.235765	0.299998	
710000	-48552.771	7.551	0.222616	0.241621	0.235765	0.299998	
711000	-48558.671	7.536	0.219671	0.243261	0.241221	0.295847	
712000	-48548.094	7.538	0.228934	0.242521	0.239295	0.289250	
713000	-48563.284	7.508	0.225356	0.243018	0.225228	0.306398	
714000	-48572.571	7.495	0.232410	0.235475	0.235446	0.296669	
715000	-48585.618	7.497	0.232410	0.235475	0.235446	0.296669	
716000	-48578.157	7.484	0.233844	0.241770	0.241092	0.283294	
717000	-48586.748	7.500	0.217245	0.232909	0.254421	0.295424	
718000	-48559.886	7.543	0.217154	0.243021	0.245636	0.294189	
719000	-48561.722	7.594	0.232896	0.244237	0.234855	0.288012	
720000	-48561.301	7.645	0.221763	0.245930	0.230612	0.301695	
721000	-48492.842	7.646	0.221763	0.245930	0.230612	0.301695	
722000	-48487.273	7.637	0.221763	0.245930	0.230612	0.301695	
723000	-48467.762	7.651	0.221763	0.245930	0.230612	0.301695	
724000	-48459.654	7.677	0.221763	0.245930	0.230612	0.301695	
725000	-48461.964	7.630	0.221763	0.245930	0.230612	0.301695	
726000	-48466.214	7.612	0.218895	0.235340	0.240191	0.305574	
727000	-48470.073	7.568	0.213349	0.246314	0.241476	0.298861	
728000	-48466.984	7.601	0.231043	0.238322	0.235364	0.295271	
729000	-48446.424	7.514	0.231043	0.238322	0.235364	0.295271	
730000	-48462.397	7.534	0.228391	0.242358	0.235242	0.294010	
731000	-48450.555	7.518	0.228391	0.242358	0.235242	0.294010	
732000	-48420.697	7.538	0.228391	0.242358	0.235242	0.294010	
733000	-48414.635	7.516	0.228391	0.242358	0.235242	0.294010	
734000	-48410.408	7.487	0.228391	0.242358	0.235242	0.294010	
735000	-48420.698	7.417	0.224304	0.240456	0.235471	0.299769	
736000	-48426.517	7.414	0.224304	0.240456	0.235471	0.299769	
737000	-48438.046	7.422	0.224304	0.240456	0.235471	0.299769	
738000	-48429.248	7.437	0.224304	0.240456	0.235471	0.299769	
739000	-48398.305	7.453	0.224304	0.240456	0.235471	0.299769	
740000	-48398.597	7.433	0.224304	0.240456	0.235471	0.299769	
741000	-48393.035	7.413	0.225155	0.240856	0.232742	0.301246	
742000	-48419.908	7.449	0.225155	0.240856	0.232742	0.301246	
743000	-48417.912	7.478	0.221045	0.242478	0.231233	0.305245	
744000	-48398.915	7.505	0.221045	0.242478	0.231233	0.305245	
745000	-48400.840	7.526	0.221045	0.242478	0.231233	0.305245	
746000	-48394.586	7.543	0.230249	0.237468	0.228752	0.303531	
747000	-48416.470	7.567	0.224064	0.237630	0.243181	0.295125	
748000	-48410.444	7.570	0.230174	0.237022	0.232620	0.300185	
749000	-48414.668	7.531	0.220319	0.242156	0.232799	0.304727	
750000	-48389.432	7.529	0.220319	0.242156	0.232799	0.304727	
751000	-48397.394	7.502	0.220319	0.242156	0.232799	0.304727	
752000	-48383.734	7.471	0.220319	0.242156	0.232799	0.304727	
753000	-48406.684	7.458	0.226351	0.247252	0.231904	0.294493	
754000	-48409.816	7.506	0.226351	0.247252	0.231904	0.294493	
755000	-48401.862	7.438	0.218990	0.239013	0.241414	0.300584	
756000	-48408.247	7.403	0.218990	0.239013	0.241414	0.300584	
757000	-48415.022	7.451	0.218990	0.239013	0.241414	0.300584	
758000	-48412.619	7.391	0.225453	0.243961	0.240958	0.289628	
759000	-48424.297	7.422	0.225453	0.243961	0.240958	0.289628	
760000	-48435.756	7.450	0.215609	0.240702	0.235969	0.307720	
761000	-48429.675	7.449	0.226459	0.235799	0.238145	0.299597	
762000	-48424.063	7.455	0.233531	0.238580	0.238171	0.289718	
763000	-48429.785	7.463	0.215151	0.242431	0.244089	0.298330	
764000	-48405.978	7.419	0.215151	0.242431	0.244089	0.298330	
765000	-48387.065	7.423	0.215151	0.242431	0.244089	0.298330	
766000	-48382.094	7.401	0.217212	0.238045	0.239077	0.305666	
767000	-48401.190	7.416	0.217212	0.238045	0.239077	0.305666	
768000	-48382.377	7.465	0.217212	0.238045	0.239077	0.305666	
769000	-48399.339	7.439	0.221138	0.238423	0.250978	0.289461	
770000	-48386.578	7.456	0.214941	0.241580	0.233934	0.309545	
771000	-48329.345	7.512	0.227631	0.231751	0.240348	0.300269	
772000	-48331.417	7.514	0.226942	0.244341	0.236476	0.292241	
773000	-48297.318	7.524	0.226942	0.244341	0.236476	0.292241	
774000	-48299.043	7.523	0.226942	0.244341	0.236476	0.292241	
775000	-48251.321	7.550	0.226377	0.242274	0.232869	0.298480	
776000	-48255.203	7.596	0.226377	0.242274	0.232869	0.298480	
777000	-48256.453	7.552	0.229595	0.245130	0.227371	0.297904	
778000	-48260.170	7.554	0.229595	0.245130	0.227371	0.297904	
779000	-48258.476	7.546	0.226088	0.242384	0.228969	0.302559	
780000	-48262.496	7.581	0.224968	0.232438	0.234805	0.307790	
781000	-48251.130	7.547	0.229496	0.240038	0.241188	0.289278	
782000	-48265.913	7.525	0.211010	0.242647	0.243526	0.302817	
783000	-48252.011	7.522	0.225061	0.239116	0.238519	0.297303	
784000	-48257.343	7.416	0.226032	0.238889	0.237494	0.297586	
785000	-48253.285	7.377	0.222505	0.245498	0.233414	0.298584	
786000	-48248.488	7.403	0.222777	0.236109	0.240006	0.301107	
787000	-48221.728	7.404	0.227944	0.243560	0.234849	0.293647	
788000	-48224.220	7.424	0.227944	0.243560	0.234849	0.293647	
789000	-48219.078	7.447	0.227944	0.243560	0.234849	0.293647	
790000	-48215.747	7.422	0.227944	0.243560	0.234849	0.293647	
791000	-48219.673	7.387	0.226666	0.247278	0.232735	0.293321	
792000	-48244.429	7.425	0.218716	0.242564	0.239712	0.299007	
793000	-48254.731	7.393	0.217634	0.244531	0.234051	0.303785	
794000	-48239.433	7.463	0.219674	0.246962	0.233349	0.300014	
795000	-48221.678	7.432	0.231930	0.241838	0.239837	0.286396	
796000	-48240.587	7.466	0.220208	0.246916	0.237015	0.295861	
797000	-48252.322	7.462	0.220208	0.246916	0.237015	0.295861	
798000	-48245.131	7.467	0.220208	0.246916	0.237015	0.295861	
799000	-48231.762	7.435	0.220208	0.246916	0.237015	0.295861	
800000	-48211.746	7.424	0.220208	0.246916	0.237015	0.295861	
801000	-48229.195	7.425	0.220208	0.246916	0.237015	0.295861	
802000	-48237.368	7.507	0.220208	0.246916	0.237015	0.295861	
803000	-48232.402	7.517	0.223618	0.249649	0.233467	0.293267	
804000	-48219.444	7.439	0.223618	0.249649	0.233467	0.293267	
805000	-48216.030	7.477	0.226447	0.235423	0.237792	0.300337	
806000	-48229.486	7.511	0.225250	0.239582	0.244012	0.291155	
807000	-48226.694	7.489	0.219390	0.237414	0.240796	0.302400	
808000	-48224.757	7.484	0.223136	0.240699	0.237241	0.298925	
809000	-48239.360	7.565	0.223136	0.240699	0.237241	0.298925	
810000	-48255.284	7.572	0.223136	0.240699	0.237241	0.298925	
811000	-48262.134	7.633	0.223136	0.240699	0.237241	0.298925	
812000	-48251.453	7.565	0.223136	0.240699	0.237241	0.298925	
813000	-48234.717	7.573	0.223136	0.240699	0.237241	0.298925	
814000	-48230.152	7.579	0.230448	0.237053	0.238241	0.294258	
815000	-48227.962	7.573	0.230448	0.237053	0.238241	0.294258	
816000	-48231.905	7.557	0.230448	0.237053	0.238241	0.294258	
817000	-48224.623	7.532	0.230448	0.237053	0.238241	0.294258	
818000	-48223.380	7.520	0.230448	0.237053	0.238241	0.294258	
819000	-48224.790	7.478	0.221741	0.234929	0.242275	0.301055	
820000	-48223.487	7.488	0.221741	0.234929	0.242275	0.301055	
821000	-48205.553	7.479	0.221741	0.234929	0.242275	0.301055	
822000	-48241.752	7.501	0.227651	0.235387	0.239077	0.297885	
823000	-48243.822	7.501	0.227651	0.235387	0.239077	0.297885	
824000	-48222.963	7.498	0.211828	0.244256	0.241156	0.302760	
825000	-48232.707	7.514	0.231485	0.245062	0.239002	0.284451	
826000	-48221.979	7.447	0.231485	0.245062	0.239002	0.284451	
827000	-48194.842	7.452	0.211987	0.242312	0.239360	0.306340	
828000	-48183.734	7.490	0.231008	0.248946	0.231808	0.288238	
829000	-48161.644	7.482	0.223053	0.244399	0.224192	0.308357	
830000	-48145.876	7.498	0.223053	0.244399	0.224192	0.308357	
831000	-48143.499	7.528	0.230640	0.235864	0.230315	0.303180	
832000	-48145.023	7.517	0.217362	0.243580	0.245889	0.293169	
833000	-48126.057	7.472	0.217362	0.243580	0.245889	0.293169	
834000	-48133.723	7.439	0.217362	0.243580	0.245889	0.293169	
835000	-48152.304	7.477	0.217362	0.243580	0.245889	0.293169	
836000	-48134.919	7.430	0.226186	0.241993	0.241082	0.290739	
837000	-48157.156	7.491	0.214269	0.243083	0.240127	0.302521	
838000	-48156.600	7.560	0.227640	0.239752	0.238946	0.293662	
839000	-48165.784	7.519	0.226754	0.245877	0.233930	0.293439	
840000	-48152.827	7.555	0.219140	0.240643	0.236637	0.303579	
841000	-48163.562	7.533	0.223534	0.252363	0.222818	0.301284	
842000	-48135.949	7.490	0.215131	0.249369	0.233773	0.301726	
843000	-48134.690	7.532	0.215131	0.249369	0.233773	0.301726	
844000	-48126.550	7.484	0.223447	0.240091	0.242954	0.293508	
845000	-48139.533	7.490	0.223554	0.246488	0.230421	0.299537	
846000	-48138.532	7.513	0.228826	0.241555	0.234418	0.295201	
847000	-48159.532	7.533	0.228826	0.241555	0.234418	0.295201	
848000	-48162.054	7.531	0.228826	0.241555	0.234418	0.295201	
849000	-48157.683	7.524	0.228826	0.241555	0.234418	0.295201	
850000	-48168.845	7.513	0.219060	0.242280	0.242348	0.296313	
851000	-48181.251	7.508	0.228149	0.251153	0.223737	0.296961	
852000	-48193.721	7.476	0.231490	0.238949	0.237458	0.292103	
853000	-48185.553	7.516	0.229384	0.243675	0.237733	0.289208	
854000	-48185.037	7.520	0.220577	0.240923	0.241855	0.296646	
855000	-48180.997	7.495	0.220683	0.244672	0.234041	0.300604	
856000	-48181.661	7.426	0.220683	0.244672	0.234041	0.300604	
857000	-48164.279	7.416	0.220683	0.244672	0.234041	0.300604	
858000	-48183.795	7.432	0.220683	0.244672	0.234041	0.300604	
859000	-48190.394	7.392	0.217859	0.243065	0.235595	0.303481	
860000	-48195.825	7.408	0.223222	0.247244	0.238750	0.290783	
861000	-48216.580	7.465	0.223222	0.247244	0.238750	0.290783	
862000	-48220.884	7.455	0.223222	0.247244	0.238750	0.290783	
863000	-48210.778	7.718	0.227526	0.238736	0.242816	0.290922	
864000	-48165.061	7.637	0.224134	0.239506	0.228515	0.307846	
865000	-48150.427	7.708	0.228690	0.240829	0.231492	0.298989	
866000	-48146.521	7.707	0.228690	0.240829	0.231492	0.298989	
867000	-48115.873	7.689	0.228690	0.240829	0.231492	0.298989	
868000	-48127.123	7.715	0.228690	0.240829	0.231492	0.298989	
869000	-48099.070	7.754	0.228690	0.240829	0.231492	0.298989	
870000	-48075.226	7.707	0.227796	0.243171	0.235981	0.293052	
871000	-48078.491	7.696	0.232475	0.229433	0.232598	0.305493	
872000	-48062.294	7.694	0.221678	0.236307	0.239299	0.302716	
873000	-48070.146	7.688	0.231259	0.238211	0.231107	0.299424	
874000	-48082.665	7.689	0.231259	0.238211	0.231107	0.299424	
875000	-48066.471	7.687	0.231259	0.238211	0.231107	0.299424	
876000	-47864.857	7.568	0.224393	0.238973	0.241706	0.294928	
877000	-47792.393	7.519	0.233818	0.244619	0.235260	0.286302	
878000	-47744.615	7.504	0.221319	0.234408	0.236384	0.307890	
879000	-47665.671	7.451	0.230617	0.241316	0.232008	0.296059	
880000	-47632.872	7.440	0.224635	0.240943	0.236235	0.298187	
881000	-47596.163	7.470	0.224635	0.240943	0.236235	0.298187	
882000	-47582.491	7.467	0.232513	0.241168	0.233228	0.293091	
883000	-47556.795	7.457	0.232513	0.241168	0.233228	0.293091	
884000	-47529.276	7.467	0.232513	0.241168	0.233228	0.293091	
885000	-47508.439	7.476	0.232513	0.241168	0.233228	0.293091	
886000	-47504.611	7.537	0.224973	0.238733	0.229493	0.306800	
887000	-47499.230	7.536	0.224460	0.239655	0.236035	0.299850	
888000	-47500.722	7.510	0.224460	0.239655	0.236035	0.299850	
889000	-47489.685	7.513	0.219004	0.245188	0.241087	0.294721	
890000	-47473.002	7.502	0.221159	0.244484	0.236436	0.297921	
891000	-47431.753	7.428	0.221159	0.244484	0.236436	0.297921	
892000	-47393.655	7.355	0.221159	0.244484	0.236436	0.297921	
893000	-47386.102	7.383	0.221159	0.244484	0.236436	0.297921	
894000	-47371.122	7.378	0.221159	0.244484	0.236436	0.297921	
895000	-47386.129	7.384	0.221159	0.244484	0.236436	0.297921	
896000	-47371.740	7.386	0.221159	0.244484	0.236436	0.297921	
897000	-47373.912	7.388	0.221159	0.244484	0.236436	0.297921	
898000	-47389.317	7.471	0.221159	0.244484	0.236436	0.297921	
899000	-47367.763	7.400	0.223447	0.246149	0.239449	0.290956	
900000	-47349.326	7.418	0.220631	0.246852	0.239606	0.292911	
901000	-47349.617	7.379	0.231591	0.237639	0.232470	0.298301	
902000	-47340.289	7.390	0.231591	0.237639	0.232470	0.298301	
903000	-47333.425	7.408	0.231591	0.237639	0.232470	0.298301	
904000	-47323.544	7.420	0.231591	0.237639	0.232470	0.298301	
905000	-47297.168	7.368	0.227348	0.244386	0.225646	0.302620	
906000	-47312.581	7.359	0.227348	0.244386	0.225646	0.302620	
907000	-47319.638	7.325	0.227348	0.244386	0.225646	0.302620	
908000	-47312.155	7.287	0.223804	0.240481	0.232042	0.303673	
909000	-47325.015	7.349	0.223804	0.240481	0.232042	0.303673	
910000	-47316.121	7.367	0.218189	0.242146	0.242167	0.297499	
911000	-47311.947	7.345	0.222420	0.248620	0.243161	0.285799	
912000	-47303.657	7.377	0.232947	0.237292	0.243160	0.286601	
913000	-47312.279	7.376	0.223943	0.246818	0.243202	0.286037	
914000	-47300.313	7.344	0.233948	0.232317	0.235837	0.297897	
915000	-47296.699	7.338	0.229331	0.231706	0.233808	0.305155	
916000	-47278.736	7.327	0.222952	0.251613	0.234799	0.290636	
917000	-47289.964	7.353	0.224878	0.241617	0.240546	0.292959	
918000	-47290.539	7.396	0.224878	0.241617	0.240546	0.292959	
919000	-47303.020	7.415	0.224878	0.241617	0.240546	0.292959	
920000	-47311.554	7.445	0.224878	0.241617	0.240546	0.292959	
921000	-47320.107	7.480	0.224878	0.241617	0.240546	0.292959	
922000	-47309.096	7.410	0.224878	0.241617	0.240546	0.292959	
923000	-47308.946	7.400	0.226369	0.243184	0.240532	0.289915	
924000	-47319.655	7.369	0.230629	0.246740	0.234422	0.288209	
925000	-47322.968	7.408	0.227476	0.237543	0.227337	0.307644	
926000	-47300.805	7.399	0.221810	0.243453	0.238584	0.296153	
927000	-47309.723	7.446	0.225515	0.233400	0.239936	0.301149	
928000	-47300.777	7.477	0.225515	0.233400	0.239936	0.301149	
929000	-47293.541	7.453	0.219997	0.249211	0.246079	0.284713	
930000	-47280.878	7.439	0.236784	0.245889	0.231717	0.285609	
931000	-47279.336	7.450	0.224256	0.234893	0.239205	0.301646	
932000	-47269.783	7.462	0.221258	0.247424	0.238714	0.292603	
933000	-47290.402	7.444	0.221258	0.247424	0.238714	0.292603	
934000	-47275.761	7.375	0.221258	0.247424	0.238714	0.292603	
935000	-47300.631	7.397	0.238692	0.233404	0.234963	0.292941	
936000	-47325.844	7.403	0.238692	0.233404	0.234963	0.292941	
937000	-47333.006	7.396	0.224837	0.243491	0.242171	0.289502	
938000	-47359.003	7.441	0.224161	0.244461	0.231805	0.299574	
939000	-47351.307	7.419	0.224161	0.244461	0.231805	0.299574	
940000	-47340.642	7.403	0.224161	0.244461	0.231805	0.299574	
941000	-47350.300	7.414	0.230946	0.237215	0.232168	0.299671	
942000	-47344.403	7.358	0.227132	0.236608	0.233046	0.303214	
943000	-47329.271	7.381	0.227132	0.236608	0.233046	0.303214	
944000	-47354.325	7.383	0.231285	0.245455	0.241179	0.282081	
945000	-47347.129	7.418	0.231138	0.241452	0.242390	0.285020	
946000	-47335.737	7.416	0.231138	0.241452	0.242390	0.285020	
947000	-47337.455	7.375	0.233250	0.239609	0.231528	0.295613	
948000	-47329.099	7.386	0.232862	0.237586	0.238272	0.291279	
949000	-47311.454	7.310	0.224039	0.238093	0.243253	0.294615	
950000	-47310.430	7.336	0.222340	0.252006	0.235707	0.289948	
951000	-47308.146	7.322	0.222340	0.252006	0.235707	0.289948	
952000	-47297.769	7.312	0.222340	0.252006	0.235707	0.289948	
953000	-47295.041	7.312	0.226381	0.246015	0.240842	0.286762	
954000	-47278.116	7.262	0.233574	0.247261	0.236257	0.282908	
955000	-47281.706	7.219	0.220011	0.248449	0.239156	0.292384	
956000	-47289.608	7.235	0.220011	0.248449	0.239156	0.292384	
957000	-47295.065	7.186	0.225791	0.245785	0.237180	0.291243	
958000	-47280.119	7.220	0.225791	0.245785	0.237180	0.291243	
959000	-47307.042	7.322	0.228866	0.244195	0.227566	0.299373	
960000	-47302.959	7.321	0.215760	0.241378	0.239053	0.303809	
961000	-47303.773	7.290	0.225043	0.240390	0.234366	0.300202	
962000	-47311.097	7.305	0.229930	0.237742	0.237930	0.294398	
963000	-47293.055	7.315	0.220461	0.241139	0.244091	0.294309	
964000	-47302.084	7.339	0.227395	0.238141	0.238702	0.295763	
965000	-47309.561	7.387	0.229653	0.239832	0.238174	0.292342	
966000	-47301.200	7.347	0.230423	0.234900	0.241291	0.293386	
967000	-47300.344	7.316	0.218097	0.242311	0.236178	0.303414	
968000	-47278.446	7.273	0.225548	0.240972	0.242446	0.291034	
969000	-47278.243	7.358	0.225548	0.240972	0.242446	0.291034	
970000	-47291.743	7.332	0.228116	0.241110	0.238988	0.291786	
971000	-47299.129	7.303	0.228116	0.241110	0.238988	0.291786	
972000	-47278.907	7.310	0.229340	0.243933	0.234057	0.292669	
973000	-47274.360	7.299	0.229340	0.243933	0.234057	0.292669	
974000	-47276.906	7.272	0.229340	0.243933	0.234057	0.292669	
975000	-47260.615	7.266	0.229340	0.243933	0.234057	0.292669	
976000	-47260.899	7.330	0.236933	0.240124	0.238460	0.284484	
977000	-47281.683	7.408	0.236933	0.240124	0.238460	0.284484	
978000	-47286.976	7.407	0.225180	0.243731	0.236873	0.294216	
979000	-47298.544	7.400	0.225180	0.243731	0.236873	0.294216	
980000	-47288.684	7.391	0.226403	0.246786	0.237546	0.289265	
981000	-47298.326	7.378	0.226403	0.246786	0.237546	0.289265	
982000	-47300.547	7.341	0.227217	0.247430	0.233713	0.291640	
983000	-47305.746	7.328	0.227217	0.247430	0.233713	0.291640	
984000	-47317.052	7.383	0.230718	0.240284	0.234399	0.294598	
985000	-47307.845	7.402	0.226268	0.237133	0.237816	0.298783	
986000	-47314.341	7.416	0.226268	0.237133	0.237816	0.298783	
987000	-47303.912	7.384	0.225120	0.241129	0.241989	0.291762	
988000	-47294.431	7.370	0.232524	0.236960	0.242400	0.288115	
989000	-47295.020	7.312	0.233324	0.239479	0.236927	0.290269	
990000	-47308.614	7.297	0.233324	0.239479	0.236927	0.290269	
991000	-47319.907	7.279	0.233324	0.239479	0.236927	0.290269	
992000	-47341.733	7.341	0.226048	0.239977	0.243588	0.290387	
993000	-47314.749	7.287	0.223444	0.241323	0.238092	0.297141	
994000	-47303.001	7.243	0.223876	0.239042	0.235059	0.302023	
995000	-47303.392	7.290	0.223876	0.239042	0.235059	0.302023	
996000	-47306.716	7.325	0.227249	0.243221	0.237719	0.291811	
997000	-47321.111	7.368	0.227249	0.243221	0.237719	0.291811	
998000	-47324.138	7.387	0.227249	0.243221	0.237719	0.291811	
999000	-47330.052	7.430	0.227249	0.243221	0.237719	0.291811	
1000000	-47328.537	7.423	0.226063	0.240501	0.233790	0.299647	
